#  E (eV)   dos(E)     Int dos(E)
-22.614  0.9839E-04  0.9839E-06
-22.604  0.4129E-03  0.5113E-05
-22.594  0.1540E-02  0.2052E-04
-22.584  0.5111E-02  0.7163E-04
-22.574  0.1509E-01  0.2226E-03
-22.564  0.3967E-01  0.6193E-03
-22.554  0.9294E-01  0.1549E-02
-22.544  0.1942E+00  0.3491E-02
-22.534  0.3625E+00  0.7116E-02
-22.524  0.6059E+00  0.1317E-01
-22.514  0.9089E+00  0.2226E-01
-22.504  0.1229E+01  0.3455E-01
-22.494  0.1505E+01  0.4960E-01
-22.484  0.1681E+01  0.6641E-01
-22.474  0.1732E+01  0.8373E-01
-22.464  0.1667E+01  0.1004E+00
-22.454  0.1527E+01  0.1157E+00
-22.444  0.1361E+01  0.1293E+00
-22.434  0.1203E+01  0.1413E+00
-22.424  0.1073E+01  0.1520E+00
-22.414  0.9714E+00  0.1618E+00
-22.404  0.8905E+00  0.1707E+00
-22.394  0.8236E+00  0.1789E+00
-22.384  0.7686E+00  0.1866E+00
-22.374  0.7271E+00  0.1939E+00
-22.364  0.7012E+00  0.2009E+00
-22.354  0.6884E+00  0.2078E+00
-22.344  0.6800E+00  0.2146E+00
-22.334  0.6637E+00  0.2212E+00
-22.324  0.6306E+00  0.2275E+00
-22.314  0.5821E+00  0.2333E+00
-22.304  0.5318E+00  0.2386E+00
-22.294  0.4994E+00  0.2436E+00
-22.284  0.4998E+00  0.2486E+00
-22.274  0.5320E+00  0.2540E+00
-22.264  0.5771E+00  0.2597E+00
-22.254  0.6066E+00  0.2658E+00
-22.244  0.5967E+00  0.2718E+00
-22.234  0.5416E+00  0.2772E+00
-22.224  0.4566E+00  0.2817E+00
-22.214  0.3723E+00  0.2855E+00
-22.204  0.3210E+00  0.2887E+00
-22.194  0.3239E+00  0.2919E+00
-22.184  0.3819E+00  0.2957E+00
-22.174  0.4739E+00  0.3005E+00
-22.164  0.5630E+00  0.3061E+00
-22.154  0.6111E+00  0.3122E+00
-22.144  0.5956E+00  0.3182E+00
-22.134  0.5189E+00  0.3234E+00
-22.124  0.4062E+00  0.3274E+00
-22.114  0.2933E+00  0.3303E+00
-22.104  0.2125E+00  0.3325E+00
-22.094  0.1843E+00  0.3343E+00
-22.084  0.2150E+00  0.3365E+00
-22.074  0.2973E+00  0.3394E+00
-22.064  0.4097E+00  0.3435E+00
-22.054  0.5199E+00  0.3487E+00
-22.044  0.5925E+00  0.3547E+00
-22.034  0.6023E+00  0.3607E+00
-22.024  0.5455E+00  0.3661E+00
-22.014  0.4409E+00  0.3705E+00
-22.004  0.3205E+00  0.3738E+00
-21.994  0.2160E+00  0.3759E+00
-21.984  0.1490E+00  0.3774E+00
-21.974  0.1285E+00  0.3787E+00
-21.964  0.1537E+00  0.3802E+00
-21.954  0.2169E+00  0.3824E+00
-21.944  0.3048E+00  0.3854E+00
-21.934  0.3992E+00  0.3894E+00
-21.924  0.4795E+00  0.3942E+00
-21.914  0.5273E+00  0.3995E+00
-21.904  0.5316E+00  0.4048E+00
-21.894  0.4915E+00  0.4097E+00
-21.884  0.4164E+00  0.4139E+00
-21.874  0.3241E+00  0.4171E+00
-21.864  0.2352E+00  0.4195E+00
-21.854  0.1682E+00  0.4212E+00
-21.844  0.1352E+00  0.4225E+00
-21.834  0.1399E+00  0.4239E+00
-21.824  0.1773E+00  0.4257E+00
-21.814  0.2346E+00  0.4280E+00
-21.804  0.2948E+00  0.4310E+00
-21.794  0.3427E+00  0.4344E+00
-21.784  0.3710E+00  0.4381E+00
-21.774  0.3824E+00  0.4420E+00
-21.764  0.3850E+00  0.4458E+00
-21.754  0.3839E+00  0.4496E+00
-21.744  0.3763E+00  0.4534E+00
-21.734  0.3549E+00  0.4570E+00
-21.724  0.3153E+00  0.4601E+00
-21.714  0.2633E+00  0.4627E+00
-21.704  0.2136E+00  0.4649E+00
-21.694  0.1834E+00  0.4667E+00
-21.684  0.1834E+00  0.4685E+00
-21.674  0.2124E+00  0.4707E+00
-21.664  0.2569E+00  0.4732E+00
-21.654  0.2964E+00  0.4762E+00
-21.644  0.3130E+00  0.4793E+00
-21.634  0.2999E+00  0.4823E+00
-21.624  0.2649E+00  0.4850E+00
-21.614  0.2265E+00  0.4872E+00
-21.604  0.2046E+00  0.4893E+00
-21.594  0.2105E+00  0.4914E+00
-21.584  0.2414E+00  0.4938E+00
-21.574  0.2823E+00  0.4966E+00
-21.564  0.3138E+00  0.4998E+00
-21.554  0.3224E+00  0.5030E+00
-21.544  0.3083E+00  0.5061E+00
-21.534  0.2847E+00  0.5089E+00
-21.524  0.2693E+00  0.5116E+00
-21.514  0.2731E+00  0.5143E+00
-21.504  0.2932E+00  0.5173E+00
-21.494  0.3145E+00  0.5204E+00
-21.484  0.3186E+00  0.5236E+00
-21.474  0.2948E+00  0.5266E+00
-21.464  0.2454E+00  0.5290E+00
-21.454  0.1834E+00  0.5308E+00
-21.444  0.1254E+00  0.5321E+00
-21.434  0.8503E-01  0.5330E+00
-21.424  0.7001E-01  0.5337E+00
-21.414  0.8297E-01  0.5345E+00
-21.404  0.1223E+00  0.5357E+00
-21.394  0.1818E+00  0.5375E+00
-21.384  0.2501E+00  0.5400E+00
-21.374  0.3135E+00  0.5432E+00
-21.364  0.3605E+00  0.5468E+00
-21.354  0.3875E+00  0.5506E+00
-21.344  0.3987E+00  0.5546E+00
-21.334  0.4004E+00  0.5586E+00
-21.324  0.3942E+00  0.5626E+00
-21.314  0.3754E+00  0.5663E+00
-21.304  0.3377E+00  0.5697E+00
-21.294  0.2805E+00  0.5725E+00
-21.284  0.2118E+00  0.5746E+00
-21.274  0.1437E+00  0.5761E+00
-21.264  0.8724E-01  0.5769E+00
-21.254  0.4753E-01  0.5774E+00
-21.244  0.2425E-01  0.5777E+00
-21.234  0.1457E-01  0.5778E+00
-21.224  0.1653E-01  0.5780E+00
-21.214  0.3108E-01  0.5783E+00
-21.204  0.6215E-01  0.5789E+00
-21.194  0.1146E+00  0.5800E+00
-21.184  0.1905E+00  0.5819E+00
-21.174  0.2856E+00  0.5848E+00
-21.164  0.3872E+00  0.5887E+00
-21.154  0.4764E+00  0.5934E+00
-21.144  0.5335E+00  0.5988E+00
-21.134  0.5446E+00  0.6042E+00
-21.124  0.5070E+00  0.6093E+00
-21.114  0.4299E+00  0.6136E+00
-21.104  0.3313E+00  0.6169E+00
-21.094  0.2312E+00  0.6192E+00
-21.084  0.1457E+00  0.6207E+00
-21.074  0.8252E-01  0.6215E+00
-21.064  0.4192E-01  0.6219E+00
-21.054  0.1906E-01  0.6221E+00
-21.044  0.7795E-02  0.6222E+00
-21.034  0.3092E-02  0.6222E+00
-21.024  0.1998E-02  0.6222E+00
-21.014  0.3809E-02  0.6223E+00
-21.004  0.1023E-01  0.6224E+00
-20.994  0.2583E-01  0.6226E+00
-20.984  0.5815E-01  0.6232E+00
-20.974  0.1161E+00  0.6244E+00
-20.964  0.2058E+00  0.6264E+00
-20.954  0.3234E+00  0.6297E+00
-20.944  0.4508E+00  0.6342E+00
-20.934  0.5574E+00  0.6397E+00
-20.924  0.6113E+00  0.6459E+00
-20.914  0.5947E+00  0.6518E+00
-20.904  0.5131E+00  0.6569E+00
-20.894  0.3927E+00  0.6609E+00
-20.884  0.2666E+00  0.6635E+00
-20.874  0.1606E+00  0.6651E+00
-20.864  0.8576E-01  0.6660E+00
-20.854  0.4063E-01  0.6664E+00
-20.844  0.1708E-01  0.6666E+00
-20.834  0.6389E-02  0.6666E+00
-20.824  0.2208E-02  0.6667E+00
-20.814  0.1007E-02  0.6667E+00
-20.804  0.1465E-02  0.6667E+00
-20.794  0.3916E-02  0.6667E+00
-20.784  0.1026E-01  0.6668E+00
-20.774  0.2410E-01  0.6671E+00
-20.764  0.5050E-01  0.6676E+00
-20.754  0.9453E-01  0.6685E+00
-20.744  0.1586E+00  0.6701E+00
-20.734  0.2397E+00  0.6725E+00
-20.724  0.3283E+00  0.6758E+00
-20.714  0.4105E+00  0.6799E+00
-20.704  0.4721E+00  0.6846E+00
-20.694  0.5027E+00  0.6896E+00
-20.684  0.4973E+00  0.6946E+00
-20.674  0.4568E+00  0.6992E+00
-20.664  0.3878E+00  0.7031E+00
-20.654  0.3021E+00  0.7061E+00
-20.644  0.2145E+00  0.7082E+00
-20.634  0.1377E+00  0.7096E+00
-20.624  0.7948E-01  0.7104E+00
-20.614  0.4109E-01  0.7108E+00
-20.604  0.1899E-01  0.7110E+00
-20.594  0.7949E-02  0.7111E+00
-20.584  0.3428E-02  0.7111E+00
-20.574  0.2792E-02  0.7111E+00
-20.564  0.5586E-02  0.7112E+00
-20.554  0.1351E-01  0.7113E+00
-20.544  0.3013E-01  0.7116E+00
-20.534  0.5986E-01  0.7122E+00
-20.524  0.1055E+00  0.7133E+00
-20.514  0.1652E+00  0.7149E+00
-20.504  0.2296E+00  0.7172E+00
-20.494  0.2842E+00  0.7201E+00
-20.484  0.3152E+00  0.7232E+00
-20.474  0.3173E+00  0.7264E+00
-20.464  0.2984E+00  0.7294E+00
-20.454  0.2758E+00  0.7321E+00
-20.444  0.2667E+00  0.7348E+00
-20.434  0.2777E+00  0.7376E+00
-20.424  0.3008E+00  0.7406E+00
-20.414  0.3183E+00  0.7438E+00
-20.404  0.3134E+00  0.7469E+00
-20.394  0.2796E+00  0.7497E+00
-20.384  0.2232E+00  0.7519E+00
-20.374  0.1586E+00  0.7535E+00
-20.364  0.1002E+00  0.7545E+00
-20.354  0.5628E-01  0.7551E+00
-20.344  0.2850E-01  0.7554E+00
-20.334  0.1425E-01  0.7555E+00
-20.324  0.1035E-01  0.7556E+00
-20.314  0.1561E-01  0.7558E+00
-20.304  0.3159E-01  0.7561E+00
-20.294  0.6158E-01  0.7567E+00
-20.284  0.1078E+00  0.7578E+00
-20.274  0.1675E+00  0.7595E+00
-20.264  0.2311E+00  0.7618E+00
-20.254  0.2826E+00  0.7646E+00
-20.244  0.3066E+00  0.7677E+00
-20.234  0.2952E+00  0.7706E+00
-20.224  0.2525E+00  0.7731E+00
-20.214  0.1931E+00  0.7751E+00
-20.204  0.1351E+00  0.7764E+00
-20.194  0.9388E-01  0.7774E+00
-20.184  0.7849E-01  0.7781E+00
-20.174  0.9200E-01  0.7791E+00
-20.164  0.1318E+00  0.7804E+00
-20.154  0.1891E+00  0.7823E+00
-20.144  0.2489E+00  0.7848E+00
-20.134  0.2932E+00  0.7877E+00
-20.124  0.3070E+00  0.7908E+00
-20.114  0.2852E+00  0.7936E+00
-20.104  0.2352E+00  0.7960E+00
-20.094  0.1722E+00  0.7977E+00
-20.084  0.1129E+00  0.7988E+00
-20.074  0.6848E-01  0.7995E+00
-20.064  0.4417E-01  0.7999E+00
-20.054  0.4116E-01  0.8004E+00
-20.044  0.5949E-01  0.8010E+00
-20.034  0.9850E-01  0.8019E+00
-20.024  0.1545E+00  0.8035E+00
-20.014  0.2179E+00  0.8057E+00
-20.004  0.2734E+00  0.8084E+00
-19.994  0.3043E+00  0.8114E+00
-19.984  0.3005E+00  0.8144E+00
-19.974  0.2631E+00  0.8171E+00
-19.964  0.2043E+00  0.8191E+00
-19.954  0.1408E+00  0.8205E+00
-19.944  0.8605E-01  0.8214E+00
-19.934  0.4687E-01  0.8219E+00
-19.924  0.2340E-01  0.8221E+00
-19.914  0.1263E-01  0.8222E+00
-19.904  0.1194E-01  0.8223E+00
-19.894  0.2111E-01  0.8225E+00
-19.884  0.4252E-01  0.8230E+00
-19.874  0.7930E-01  0.8238E+00
-19.864  0.1320E+00  0.8251E+00
-19.854  0.1950E+00  0.8270E+00
-19.844  0.2556E+00  0.8296E+00
-19.834  0.2972E+00  0.8326E+00
-19.824  0.3070E+00  0.8356E+00
-19.814  0.2826E+00  0.8385E+00
-19.804  0.2345E+00  0.8408E+00
-19.794  0.1816E+00  0.8426E+00
-19.784  0.1437E+00  0.8441E+00
-19.774  0.1342E+00  0.8454E+00
-19.764  0.1564E+00  0.8470E+00
-19.754  0.2025E+00  0.8490E+00
-19.744  0.2559E+00  0.8515E+00
-19.734  0.2963E+00  0.8545E+00
-19.724  0.3072E+00  0.8576E+00
-19.714  0.2834E+00  0.8604E+00
-19.704  0.2321E+00  0.8627E+00
-19.694  0.1686E+00  0.8644E+00
-19.684  0.1086E+00  0.8655E+00
-19.674  0.6207E-01  0.8661E+00
-19.664  0.3145E-01  0.8664E+00
-19.654  0.1414E-01  0.8666E+00
-19.644  0.5644E-02  0.8666E+00
-19.634  0.2032E-02  0.8667E+00
-19.624  0.7851E-03  0.8667E+00
-19.614  0.7549E-03  0.8667E+00
-19.604  0.1910E-02  0.8667E+00
-19.594  0.5328E-02  0.8667E+00
-19.584  0.1344E-01  0.8669E+00
-19.574  0.3013E-01  0.8672E+00
-19.564  0.5994E-01  0.8678E+00
-19.554  0.1059E+00  0.8688E+00
-19.544  0.1662E+00  0.8705E+00
-19.534  0.2326E+00  0.8728E+00
-19.524  0.2917E+00  0.8757E+00
-19.514  0.3311E+00  0.8791E+00
-19.504  0.3471E+00  0.8825E+00
-19.494  0.3465E+00  0.8860E+00
-19.484  0.3423E+00  0.8894E+00
-19.474  0.3433E+00  0.8928E+00
-19.464  0.3477E+00  0.8963E+00
-19.454  0.3445E+00  0.8998E+00
-19.444  0.3215E+00  0.9030E+00
-19.434  0.2751E+00  0.9057E+00
-19.424  0.2122E+00  0.9079E+00
-19.414  0.1464E+00  0.9093E+00
-19.404  0.8995E-01  0.9102E+00
-19.394  0.4910E-01  0.9107E+00
-19.384  0.2379E-01  0.9110E+00
-19.374  0.1023E-01  0.9111E+00
-19.364  0.3900E-02  0.9111E+00
-19.354  0.1319E-02  0.9111E+00
-19.344  0.3958E-03  0.9111E+00
-19.334  0.1056E-03  0.9111E+00
-19.324  0.2649E-04  0.9111E+00
-19.314  0.1382E-04  0.9111E+00
-19.304  0.4106E-04  0.9111E+00
-19.294  0.1659E-03  0.9111E+00
-19.284  0.6097E-03  0.9111E+00
-19.274  0.1995E-02  0.9111E+00
-19.264  0.5815E-02  0.9112E+00
-19.254  0.1511E-01  0.9113E+00
-19.244  0.3503E-01  0.9117E+00
-19.234  0.7255E-01  0.9124E+00
-19.224  0.1344E+00  0.9138E+00
-19.214  0.2231E+00  0.9160E+00
-19.204  0.3322E+00  0.9193E+00
-19.194  0.4441E+00  0.9238E+00
-19.184  0.5336E+00  0.9291E+00
-19.174  0.5768E+00  0.9349E+00
-19.164  0.5609E+00  0.9405E+00
-19.154  0.4907E+00  0.9454E+00
-19.144  0.3860E+00  0.9492E+00
-19.134  0.2729E+00  0.9520E+00
-19.124  0.1731E+00  0.9537E+00
-19.114  0.9840E-01  0.9547E+00
-19.104  0.5008E-01  0.9552E+00
-19.094  0.2278E-01  0.9554E+00
-19.084  0.9254E-02  0.9555E+00
-19.074  0.3352E-02  0.9555E+00
-19.064  0.1082E-02  0.9556E+00
-19.054  0.3109E-03  0.9556E+00
-19.044  0.7948E-04  0.9556E+00
-19.034  0.1807E-04  0.9556E+00
-19.024  0.3706E-05  0.9556E+00
-19.014  0.1034E-05  0.9556E+00
-19.004  0.2289E-05  0.9556E+00
-18.994  0.1117E-04  0.9556E+00
-18.984  0.5056E-04  0.9556E+00
-18.974  0.2035E-03  0.9556E+00
-18.964  0.7277E-03  0.9556E+00
-18.954  0.2314E-02  0.9556E+00
-18.944  0.6550E-02  0.9557E+00
-18.934  0.1652E-01  0.9558E+00
-18.924  0.3717E-01  0.9562E+00
-18.914  0.7477E-01  0.9569E+00
-18.904  0.1348E+00  0.9583E+00
-18.894  0.2184E+00  0.9605E+00
-18.884  0.3190E+00  0.9637E+00
-18.874  0.4212E+00  0.9679E+00
-18.864  0.5042E+00  0.9729E+00
-18.854  0.5485E+00  0.9784E+00
-18.844  0.5427E+00  0.9838E+00
-18.834  0.4884E+00  0.9887E+00
-18.824  0.3991E+00  0.9927E+00
-18.814  0.2956E+00  0.9957E+00
-18.804  0.1978E+00  0.9976E+00
-18.794  0.1192E+00  0.9988E+00
-18.784  0.6453E-01  0.9995E+00
-18.774  0.3128E-01  0.9998E+00
-18.764  0.1355E-01  0.9999E+00
-18.754  0.5237E-02  0.1000E+01
-18.744  0.1803E-02  0.1000E+01
-18.734  0.5522E-03  0.1000E+01
-18.724  0.1504E-03  0.1000E+01
-18.714  0.3647E-04  0.1000E+01
-18.704  0.8410E-05  0.1000E+01
-18.694  0.4807E-05  0.1000E+01
-18.684  0.1663E-04  0.1000E+01
-18.674  0.7177E-04  0.1000E+01
-18.664  0.2786E-03  0.1000E+01
-18.654  0.9598E-03  0.1000E+01
-18.644  0.2932E-02  0.1000E+01
-18.634  0.7945E-02  0.1000E+01
-18.624  0.1909E-01  0.1000E+01
-18.614  0.4069E-01  0.1001E+01
-18.604  0.7693E-01  0.1001E+01
-18.594  0.1290E+00  0.1003E+01
-18.584  0.1920E+00  0.1005E+01
-18.574  0.2540E+00  0.1007E+01
-18.564  0.2992E+00  0.1010E+01
-18.554  0.3163E+00  0.1013E+01
-18.544  0.3048E+00  0.1016E+01
-18.534  0.2775E+00  0.1019E+01
-18.524  0.2539E+00  0.1022E+01
-18.514  0.2495E+00  0.1024E+01
-18.504  0.2671E+00  0.1027E+01
-18.494  0.2954E+00  0.1030E+01
-18.484  0.3149E+00  0.1033E+01
-18.474  0.3093E+00  0.1036E+01
-18.464  0.2738E+00  0.1039E+01
-18.454  0.2163E+00  0.1041E+01
-18.444  0.1520E+00  0.1043E+01
-18.434  0.9479E-01  0.1043E+01
-18.424  0.5246E-01  0.1044E+01
-18.414  0.2575E-01  0.1044E+01
-18.404  0.1121E-01  0.1044E+01
-18.394  0.4329E-02  0.1044E+01
-18.384  0.1484E-02  0.1044E+01
-18.374  0.4584E-03  0.1044E+01
-18.364  0.1590E-03  0.1044E+01
-18.354  0.1836E-03  0.1044E+01
-18.344  0.5681E-03  0.1044E+01
-18.334  0.1812E-02  0.1044E+01
-18.324  0.5176E-02  0.1045E+01
-18.314  0.1312E-01  0.1045E+01
-18.304  0.2949E-01  0.1045E+01
-18.294  0.5880E-01  0.1046E+01
-18.284  0.1040E+00  0.1047E+01
-18.274  0.1631E+00  0.1048E+01
-18.264  0.2268E+00  0.1050E+01
-18.254  0.2797E+00  0.1053E+01
-18.244  0.3060E+00  0.1056E+01
-18.234  0.2969E+00  0.1059E+01
-18.224  0.2556E+00  0.1062E+01
-18.214  0.1953E+00  0.1064E+01
-18.204  0.1331E+00  0.1065E+01
-18.194  0.8258E-01  0.1066E+01
-18.184  0.5115E-01  0.1066E+01
-18.174  0.4117E-01  0.1067E+01
-18.164  0.5293E-01  0.1067E+01
-18.154  0.8605E-01  0.1068E+01
-18.144  0.1379E+00  0.1070E+01
-18.134  0.2005E+00  0.1072E+01
-18.124  0.2599E+00  0.1074E+01
-18.114  0.2990E+00  0.1077E+01
-18.104  0.3052E+00  0.1080E+01
-18.094  0.2762E+00  0.1083E+01
-18.084  0.2217E+00  0.1085E+01
-18.074  0.1579E+00  0.1087E+01
-18.064  0.9969E-01  0.1088E+01
-18.054  0.5584E-01  0.1088E+01
-18.044  0.2779E-01  0.1089E+01
-18.034  0.1245E-01  0.1089E+01
-18.024  0.5600E-02  0.1089E+01
-18.014  0.4223E-02  0.1089E+01
-18.004  0.7577E-02  0.1089E+01
-17.994  0.1738E-01  0.1089E+01
-17.984  0.3733E-01  0.1090E+01
-17.974  0.7155E-01  0.1090E+01
-17.964  0.1217E+00  0.1091E+01
-17.954  0.1837E+00  0.1093E+01
-17.944  0.2458E+00  0.1096E+01
-17.934  0.2917E+00  0.1099E+01
-17.924  0.3071E+00  0.1102E+01
-17.914  0.2867E+00  0.1105E+01
-17.904  0.2373E+00  0.1107E+01
-17.894  0.1743E+00  0.1109E+01
-17.884  0.1135E+00  0.1110E+01
-17.874  0.6554E-01  0.1111E+01
-17.864  0.3357E-01  0.1111E+01
-17.854  0.1527E-01  0.1111E+01
-17.844  0.6213E-02  0.1111E+01
-17.834  0.2465E-02  0.1111E+01
-17.824  0.1628E-02  0.1111E+01
-17.814  0.3053E-02  0.1111E+01
-17.804  0.7814E-02  0.1111E+01
-17.794  0.1873E-01  0.1111E+01
-17.784  0.4000E-01  0.1112E+01
-17.774  0.7583E-01  0.1113E+01
-17.764  0.1275E+00  0.1114E+01
-17.754  0.1901E+00  0.1116E+01
-17.744  0.2514E+00  0.1118E+01
-17.734  0.2949E+00  0.1121E+01
-17.724  0.3069E+00  0.1124E+01
-17.714  0.2839E+00  0.1127E+01
-17.704  0.2346E+00  0.1129E+01
-17.694  0.1766E+00  0.1131E+01
-17.684  0.1287E+00  0.1133E+01
-17.674  0.1051E+00  0.1134E+01
-17.664  0.1124E+00  0.1135E+01
-17.654  0.1486E+00  0.1136E+01
-17.644  0.2033E+00  0.1138E+01
-17.634  0.2598E+00  0.1141E+01
-17.624  0.2987E+00  0.1144E+01
-17.614  0.3058E+00  0.1147E+01
-17.604  0.2779E+00  0.1150E+01
-17.594  0.2241E+00  0.1152E+01
-17.584  0.1603E+00  0.1153E+01
-17.574  0.1017E+00  0.1154E+01
-17.564  0.5721E-01  0.1155E+01
-17.554  0.2854E-01  0.1155E+01
-17.544  0.1263E-01  0.1155E+01
-17.534  0.4957E-02  0.1156E+01
-17.524  0.1725E-02  0.1156E+01
-17.514  0.5326E-03  0.1156E+01
-17.504  0.1461E-03  0.1156E+01
-17.494  0.3714E-04  0.1156E+01
-17.484  0.1675E-04  0.1156E+01
-17.474  0.4408E-04  0.1156E+01
-17.464  0.1772E-03  0.1156E+01
-17.454  0.6537E-03  0.1156E+01
-17.444  0.2149E-02  0.1156E+01
-17.434  0.6290E-02  0.1156E+01
-17.424  0.1641E-01  0.1156E+01
-17.414  0.3815E-01  0.1156E+01
-17.404  0.7914E-01  0.1157E+01
-17.394  0.1466E+00  0.1158E+01
-17.384  0.2424E+00  0.1161E+01
-17.374  0.3584E+00  0.1164E+01
-17.364  0.4737E+00  0.1169E+01
-17.354  0.5600E+00  0.1175E+01
-17.344  0.5926E+00  0.1181E+01
-17.334  0.5618E+00  0.1186E+01
-17.324  0.4793E+00  0.1191E+01
-17.314  0.3738E+00  0.1195E+01
-17.304  0.2821E+00  0.1198E+01
-17.294  0.2397E+00  0.1200E+01
-17.284  0.2759E+00  0.1203E+01
-17.274  0.4105E+00  0.1207E+01
-17.264  0.6470E+00  0.1213E+01
-17.254  0.9638E+00  0.1223E+01
-17.244  0.1310E+01  0.1236E+01
-17.234  0.1615E+01  0.1252E+01
-17.224  0.1813E+01  0.1270E+01
-17.214  0.1871E+01  0.1289E+01
-17.204  0.1798E+01  0.1307E+01
-17.194  0.1637E+01  0.1323E+01
-17.184  0.1444E+01  0.1338E+01
-17.174  0.1261E+01  0.1351E+01
-17.164  0.1109E+01  0.1362E+01
-17.154  0.9928E+00  0.1372E+01
-17.144  0.9066E+00  0.1381E+01
-17.134  0.8420E+00  0.1389E+01
-17.124  0.7917E+00  0.1397E+01
-17.114  0.7510E+00  0.1404E+01
-17.104  0.7168E+00  0.1412E+01
-17.094  0.6873E+00  0.1419E+01
-17.084  0.6614E+00  0.1425E+01
-17.074  0.6384E+00  0.1432E+01
-17.064  0.6178E+00  0.1438E+01
-17.054  0.5993E+00  0.1444E+01
-17.044  0.5828E+00  0.1450E+01
-17.034  0.5685E+00  0.1455E+01
-17.024  0.5577E+00  0.1461E+01
-17.014  0.5530E+00  0.1466E+01
-17.004  0.5584E+00  0.1472E+01
-16.994  0.5778E+00  0.1478E+01
-16.984  0.6135E+00  0.1484E+01
-16.974  0.6630E+00  0.1490E+01
-16.964  0.7172E+00  0.1498E+01
-16.954  0.7599E+00  0.1505E+01
-16.944  0.7743E+00  0.1513E+01
-16.934  0.7524E+00  0.1520E+01
-16.924  0.6995E+00  0.1527E+01
-16.914  0.6313E+00  0.1534E+01
-16.904  0.5639E+00  0.1539E+01
-16.894  0.5069E+00  0.1544E+01
-16.884  0.4634E+00  0.1549E+01
-16.874  0.4336E+00  0.1553E+01
-16.864  0.4168E+00  0.1558E+01
-16.854  0.4098E+00  0.1562E+01
-16.844  0.4061E+00  0.1566E+01
-16.834  0.3997E+00  0.1570E+01
-16.824  0.3897E+00  0.1574E+01
-16.814  0.3806E+00  0.1577E+01
-16.804  0.3775E+00  0.1581E+01
-16.794  0.3796E+00  0.1585E+01
-16.784  0.3806E+00  0.1589E+01
-16.774  0.3746E+00  0.1593E+01
-16.764  0.3625E+00  0.1596E+01
-16.754  0.3516E+00  0.1600E+01
-16.744  0.3493E+00  0.1603E+01
-16.734  0.3552E+00  0.1607E+01
-16.724  0.3612E+00  0.1610E+01
-16.714  0.3582E+00  0.1614E+01
-16.704  0.3447E+00  0.1617E+01
-16.694  0.3289E+00  0.1621E+01
-16.684  0.3218E+00  0.1624E+01
-16.674  0.3277E+00  0.1627E+01
-16.664  0.3403E+00  0.1631E+01
-16.654  0.3472E+00  0.1634E+01
-16.644  0.3407E+00  0.1637E+01
-16.634  0.3248E+00  0.1641E+01
-16.624  0.3144E+00  0.1644E+01
-16.614  0.3257E+00  0.1647E+01
-16.604  0.3660E+00  0.1651E+01
-16.594  0.4291E+00  0.1655E+01
-16.584  0.4978E+00  0.1660E+01
-16.574  0.5535E+00  0.1666E+01
-16.564  0.5838E+00  0.1671E+01
-16.554  0.5867E+00  0.1677E+01
-16.544  0.5685E+00  0.1683E+01
-16.534  0.5380E+00  0.1688E+01
-16.524  0.5007E+00  0.1693E+01
-16.514  0.4565E+00  0.1698E+01
-16.504  0.4041E+00  0.1702E+01
-16.494  0.3463E+00  0.1705E+01
-16.484  0.2936E+00  0.1708E+01
-16.474  0.2597E+00  0.1711E+01
-16.464  0.2534E+00  0.1714E+01
-16.454  0.2720E+00  0.1716E+01
-16.444  0.3005E+00  0.1719E+01
-16.434  0.3194E+00  0.1722E+01
-16.424  0.3154E+00  0.1726E+01
-16.414  0.2887E+00  0.1728E+01
-16.404  0.2535E+00  0.1731E+01
-16.394  0.2289E+00  0.1733E+01
-16.384  0.2284E+00  0.1736E+01
-16.374  0.2522E+00  0.1738E+01
-16.364  0.2868E+00  0.1741E+01
-16.354  0.3123E+00  0.1744E+01
-16.344  0.3137E+00  0.1747E+01
-16.334  0.2889E+00  0.1750E+01
-16.324  0.2508E+00  0.1753E+01
-16.314  0.2209E+00  0.1755E+01
-16.304  0.2207E+00  0.1757E+01
-16.294  0.2649E+00  0.1760E+01
-16.284  0.3604E+00  0.1763E+01
-16.274  0.5101E+00  0.1768E+01
-16.264  0.7161E+00  0.1776E+01
-16.254  0.9781E+00  0.1785E+01
-16.244  0.1285E+01  0.1798E+01
-16.234  0.1609E+01  0.1814E+01
-16.224  0.1906E+01  0.1833E+01
-16.214  0.2133E+01  0.1855E+01
-16.204  0.2259E+01  0.1877E+01
-16.194  0.2278E+01  0.1900E+01
-16.184  0.2201E+01  0.1922E+01
-16.174  0.2047E+01  0.1943E+01
-16.164  0.1844E+01  0.1961E+01
-16.154  0.1626E+01  0.1977E+01
-16.144  0.1429E+01  0.1992E+01
-16.134  0.1288E+01  0.2004E+01
-16.124  0.1222E+01  0.2017E+01
-16.114  0.1225E+01  0.2029E+01
-16.104  0.1268E+01  0.2042E+01
-16.094  0.1309E+01  0.2055E+01
-16.084  0.1309E+01  0.2068E+01
-16.074  0.1250E+01  0.2080E+01
-16.064  0.1140E+01  0.2092E+01
-16.054  0.1007E+01  0.2102E+01
-16.044  0.8841E+00  0.2111E+01
-16.034  0.7987E+00  0.2119E+01
-16.024  0.7611E+00  0.2126E+01
-16.014  0.7664E+00  0.2134E+01
-16.004  0.7970E+00  0.2142E+01
-15.994  0.8294E+00  0.2150E+01
-15.984  0.8417E+00  0.2158E+01
-15.974  0.8224E+00  0.2167E+01
-15.964  0.7744E+00  0.2174E+01
-15.954  0.7126E+00  0.2182E+01
-15.944  0.6564E+00  0.2188E+01
-15.934  0.6229E+00  0.2194E+01
-15.924  0.6220E+00  0.2201E+01
-15.914  0.6536E+00  0.2207E+01
-15.904  0.7074E+00  0.2214E+01
-15.894  0.7670E+00  0.2222E+01
-15.884  0.8175E+00  0.2230E+01
-15.874  0.8533E+00  0.2239E+01
-15.864  0.8785E+00  0.2247E+01
-15.854  0.9016E+00  0.2256E+01
-15.844  0.9298E+00  0.2266E+01
-15.834  0.9665E+00  0.2275E+01
-15.824  0.1012E+01  0.2285E+01
-15.814  0.1062E+01  0.2296E+01
-15.804  0.1103E+01  0.2307E+01
-15.794  0.1119E+01  0.2318E+01
-15.784  0.1093E+01  0.2329E+01
-15.774  0.1019E+01  0.2339E+01
-15.764  0.9101E+00  0.2349E+01
-15.754  0.7870E+00  0.2356E+01
-15.744  0.6714E+00  0.2363E+01
-15.734  0.5802E+00  0.2369E+01
-15.724  0.5247E+00  0.2374E+01
-15.714  0.5114E+00  0.2379E+01
-15.704  0.5386E+00  0.2385E+01
-15.694  0.5930E+00  0.2391E+01
-15.684  0.6516E+00  0.2397E+01
-15.674  0.6909E+00  0.2404E+01
-15.664  0.6973E+00  0.2411E+01
-15.654  0.6724E+00  0.2418E+01
-15.644  0.6289E+00  0.2424E+01
-15.634  0.5851E+00  0.2430E+01
-15.624  0.5613E+00  0.2435E+01
-15.614  0.5811E+00  0.2441E+01
-15.604  0.6685E+00  0.2448E+01
-15.594  0.8369E+00  0.2456E+01
-15.584  0.1073E+01  0.2467E+01
-15.574  0.1329E+01  0.2480E+01
-15.564  0.1534E+01  0.2496E+01
-15.554  0.1624E+01  0.2512E+01
-15.544  0.1573E+01  0.2528E+01
-15.534  0.1403E+01  0.2542E+01
-15.524  0.1174E+01  0.2553E+01
-15.514  0.9511E+00  0.2563E+01
-15.504  0.7875E+00  0.2571E+01
-15.494  0.7097E+00  0.2578E+01
-15.484  0.7188E+00  0.2585E+01
-15.474  0.7943E+00  0.2593E+01
-15.464  0.9012E+00  0.2602E+01
-15.454  0.1002E+01  0.2612E+01
-15.444  0.1068E+01  0.2623E+01
-15.434  0.1094E+01  0.2634E+01
-15.424  0.1089E+01  0.2645E+01
-15.414  0.1078E+01  0.2655E+01
-15.404  0.1082E+01  0.2666E+01
-15.394  0.1116E+01  0.2677E+01
-15.384  0.1181E+01  0.2689E+01
-15.374  0.1267E+01  0.2702E+01
-15.364  0.1356E+01  0.2715E+01
-15.354  0.1421E+01  0.2730E+01
-15.344  0.1432E+01  0.2744E+01
-15.334  0.1366E+01  0.2758E+01
-15.324  0.1220E+01  0.2770E+01
-15.314  0.1009E+01  0.2780E+01
-15.304  0.7670E+00  0.2788E+01
-15.294  0.5337E+00  0.2793E+01
-15.284  0.3383E+00  0.2796E+01
-15.274  0.1947E+00  0.2798E+01
-15.264  0.1014E+00  0.2799E+01
-15.254  0.4771E-01  0.2800E+01
-15.244  0.2020E-01  0.2800E+01
-15.234  0.7686E-02  0.2800E+01
-15.224  0.2621E-02  0.2800E+01
-15.214  0.8000E-03  0.2800E+01
-15.204  0.2196E-03  0.2800E+01
-15.194  0.6194E-04  0.2800E+01
-15.184  0.5310E-04  0.2800E+01
-15.174  0.1741E-03  0.2800E+01
-15.164  0.6316E-03  0.2800E+01
-15.154  0.2063E-02  0.2800E+01
-15.144  0.6005E-02  0.2800E+01
-15.134  0.1558E-01  0.2800E+01
-15.124  0.3608E-01  0.2801E+01
-15.114  0.7463E-01  0.2801E+01
-15.104  0.1380E+00  0.2803E+01
-15.094  0.2286E+00  0.2805E+01
-15.084  0.3393E+00  0.2808E+01
-15.074  0.4518E+00  0.2813E+01
-15.064  0.5403E+00  0.2818E+01
-15.054  0.5805E+00  0.2824E+01
-15.044  0.5605E+00  0.2830E+01
-15.034  0.4862E+00  0.2835E+01
-15.024  0.3789E+00  0.2838E+01
-15.014  0.2650E+00  0.2841E+01
-15.004  0.1662E+00  0.2843E+01
-14.994  0.9332E-01  0.2844E+01
-14.984  0.4689E-01  0.2844E+01
-14.974  0.2105E-01  0.2844E+01
-14.964  0.8438E-02  0.2844E+01
-14.954  0.3015E-02  0.2844E+01
-14.944  0.9605E-03  0.2844E+01
-14.934  0.2744E-03  0.2844E+01
-14.924  0.8027E-04  0.2844E+01
-14.914  0.6778E-04  0.2844E+01
-14.904  0.2120E-03  0.2844E+01
-14.894  0.7395E-03  0.2844E+01
-14.884  0.2318E-02  0.2844E+01
-14.874  0.6449E-02  0.2845E+01
-14.864  0.1591E-01  0.2845E+01
-14.854  0.3481E-01  0.2845E+01
-14.844  0.6756E-01  0.2846E+01
-14.834  0.1163E+00  0.2847E+01
-14.824  0.1775E+00  0.2849E+01
-14.814  0.2403E+00  0.2851E+01
-14.804  0.2885E+00  0.2854E+01
-14.794  0.3072E+00  0.2857E+01
-14.784  0.2901E+00  0.2860E+01
-14.774  0.2429E+00  0.2862E+01
-14.764  0.1805E+00  0.2864E+01
-14.754  0.1189E+00  0.2865E+01
-14.744  0.6971E-01  0.2866E+01
-14.734  0.3689E-01  0.2866E+01
-14.724  0.1933E-01  0.2867E+01
-14.714  0.1435E-01  0.2867E+01
-14.704  0.2082E-01  0.2867E+01
-14.694  0.4017E-01  0.2867E+01
-14.684  0.7509E-01  0.2868E+01
-14.674  0.1263E+00  0.2869E+01
-14.664  0.1887E+00  0.2871E+01
-14.654  0.2501E+00  0.2874E+01
-14.644  0.2941E+00  0.2877E+01
-14.634  0.3068E+00  0.2880E+01
-14.624  0.2838E+00  0.2883E+01
-14.614  0.2332E+00  0.2885E+01
-14.604  0.1710E+00  0.2887E+01
-14.594  0.1140E+00  0.2888E+01
-14.584  0.7477E-01  0.2889E+01
-14.574  0.5954E-01  0.2889E+01
-14.564  0.7027E-01  0.2890E+01
-14.554  0.1056E+00  0.2891E+01
-14.544  0.1602E+00  0.2892E+01
-14.534  0.2227E+00  0.2895E+01
-14.524  0.2766E+00  0.2897E+01
-14.514  0.3053E+00  0.2901E+01
-14.504  0.2989E+00  0.2904E+01
-14.494  0.2596E+00  0.2906E+01
-14.484  0.1999E+00  0.2908E+01
-14.474  0.1366E+00  0.2909E+01
-14.464  0.8274E-01  0.2910E+01
-14.454  0.4445E-01  0.2911E+01
-14.444  0.2118E-01  0.2911E+01
-14.434  0.8952E-02  0.2911E+01
-14.424  0.3355E-02  0.2911E+01
-14.414  0.1115E-02  0.2911E+01
-14.404  0.3288E-03  0.2911E+01
-14.394  0.8597E-04  0.2911E+01
-14.384  0.1995E-04  0.2911E+01
-14.374  0.4240E-05  0.2911E+01
-14.364  0.1643E-05  0.2911E+01
-14.354  0.5194E-05  0.2911E+01
-14.344  0.2552E-04  0.2911E+01
-14.334  0.1137E-03  0.2911E+01
-14.324  0.4499E-03  0.2911E+01
-14.314  0.1579E-02  0.2911E+01
-14.304  0.4915E-02  0.2911E+01
-14.294  0.1357E-01  0.2911E+01
-14.284  0.3324E-01  0.2912E+01
-14.274  0.7223E-01  0.2912E+01
-14.264  0.1392E+00  0.2914E+01
-14.254  0.2380E+00  0.2916E+01
-14.244  0.3610E+00  0.2920E+01
-14.234  0.4857E+00  0.2925E+01
-14.224  0.5797E+00  0.2930E+01
-14.214  0.6138E+00  0.2937E+01
-14.204  0.5764E+00  0.2942E+01
-14.194  0.4802E+00  0.2947E+01
-14.184  0.3549E+00  0.2951E+01
-14.174  0.2326E+00  0.2953E+01
-14.164  0.1353E+00  0.2954E+01
-14.154  0.6978E-01  0.2955E+01
-14.144  0.3193E-01  0.2955E+01
-14.134  0.1296E-01  0.2955E+01
-14.124  0.4667E-02  0.2956E+01
-14.114  0.1491E-02  0.2956E+01
-14.104  0.4223E-03  0.2956E+01
-14.094  0.1062E-03  0.2956E+01
-14.084  0.2367E-04  0.2956E+01
-14.074  0.4685E-05  0.2956E+01
-14.064  0.8567E-06  0.2956E+01
-14.054  0.3650E-06  0.2956E+01
-14.044  0.1422E-05  0.2956E+01
-14.034  0.7372E-05  0.2956E+01
-14.024  0.3431E-04  0.2956E+01
-14.014  0.1417E-03  0.2956E+01
-14.004  0.5188E-03  0.2956E+01
-13.994  0.1685E-02  0.2956E+01
-13.984  0.4854E-02  0.2956E+01
-13.974  0.1240E-01  0.2956E+01
-13.964  0.2809E-01  0.2956E+01
-13.954  0.5644E-01  0.2957E+01
-13.944  0.1006E+00  0.2958E+01
-13.934  0.1590E+00  0.2959E+01
-13.924  0.2228E+00  0.2961E+01
-13.914  0.2770E+00  0.2964E+01
-13.904  0.3054E+00  0.2967E+01
-13.894  0.2988E+00  0.2970E+01
-13.884  0.2598E+00  0.2973E+01
-13.874  0.2019E+00  0.2975E+01
-13.864  0.1433E+00  0.2976E+01
-13.854  0.1003E+00  0.2977E+01
-13.844  0.8298E-01  0.2978E+01
-13.834  0.9507E-01  0.2979E+01
-13.824  0.1340E+00  0.2980E+01
-13.814  0.1908E+00  0.2982E+01
-13.804  0.2503E+00  0.2985E+01
-13.794  0.2939E+00  0.2988E+01
-13.784  0.3069E+00  0.2991E+01
-13.774  0.2844E+00  0.2994E+01
-13.764  0.2338E+00  0.2996E+01
-13.754  0.1704E+00  0.2998E+01
-13.744  0.1102E+00  0.2999E+01
-13.734  0.6319E-01  0.2999E+01
-13.724  0.3214E-01  0.3000E+01
-13.714  0.1450E-01  0.3000E+01
-13.704  0.5815E-02  0.3000E+01
-13.694  0.2137E-02  0.3000E+01
-13.684  0.9746E-03  0.3000E+01
-13.674  0.1380E-02  0.3000E+01
-13.664  0.3963E-02  0.3000E+01
-13.654  0.1143E-01  0.3000E+01
-13.644  0.2972E-01  0.3000E+01
-13.634  0.6909E-01  0.3001E+01
-13.624  0.1436E+00  0.3003E+01
-13.614  0.2672E+00  0.3005E+01
-13.604  0.4453E+00  0.3010E+01
-13.594  0.6662E+00  0.3016E+01
-13.584  0.8964E+00  0.3025E+01
-13.574  0.1089E+01  0.3036E+01
-13.564  0.1203E+01  0.3048E+01
-13.554  0.1222E+01  0.3060E+01
-13.544  0.1162E+01  0.3072E+01
-13.534  0.1063E+01  0.3083E+01
-13.524  0.9614E+00  0.3092E+01
-13.514  0.8744E+00  0.3101E+01
-13.504  0.7939E+00  0.3109E+01
-13.494  0.7016E+00  0.3116E+01
-13.484  0.5882E+00  0.3122E+01
-13.474  0.4621E+00  0.3127E+01
-13.464  0.3461E+00  0.3130E+01
-13.454  0.2644E+00  0.3133E+01
-13.444  0.2312E+00  0.3135E+01
-13.434  0.2455E+00  0.3137E+01
-13.424  0.2944E+00  0.3140E+01
-13.414  0.3605E+00  0.3144E+01
-13.404  0.4305E+00  0.3148E+01
-13.394  0.4994E+00  0.3153E+01
-13.384  0.5672E+00  0.3159E+01
-13.374  0.6301E+00  0.3165E+01
-13.364  0.6758E+00  0.3172E+01
-13.354  0.6874E+00  0.3179E+01
-13.344  0.6558E+00  0.3185E+01
-13.334  0.5892E+00  0.3191E+01
-13.324  0.5113E+00  0.3196E+01
-13.314  0.4484E+00  0.3201E+01
-13.304  0.4154E+00  0.3205E+01
-13.294  0.4104E+00  0.3209E+01
-13.284  0.4205E+00  0.3213E+01
-13.274  0.4325E+00  0.3218E+01
-13.264  0.4384E+00  0.3222E+01
-13.254  0.4346E+00  0.3226E+01
-13.244  0.4180E+00  0.3231E+01
-13.234  0.3858E+00  0.3234E+01
-13.224  0.3391E+00  0.3238E+01
-13.214  0.2883E+00  0.3241E+01
-13.204  0.2515E+00  0.3243E+01
-13.194  0.2480E+00  0.3246E+01
-13.184  0.2891E+00  0.3249E+01
-13.174  0.3700E+00  0.3252E+01
-13.164  0.4693E+00  0.3257E+01
-13.154  0.5543E+00  0.3263E+01
-13.144  0.5941E+00  0.3269E+01
-13.134  0.5724E+00  0.3274E+01
-13.124  0.4941E+00  0.3279E+01
-13.114  0.3816E+00  0.3283E+01
-13.104  0.2634E+00  0.3286E+01
-13.094  0.1626E+00  0.3287E+01
-13.084  0.8963E-01  0.3288E+01
-13.074  0.4430E-01  0.3289E+01
-13.064  0.2018E-01  0.3289E+01
-13.054  0.1020E-01  0.3289E+01
-13.044  0.9872E-02  0.3289E+01
-13.034  0.1843E-01  0.3289E+01
-13.024  0.3827E-01  0.3290E+01
-13.014  0.7305E-01  0.3290E+01
-13.004  0.1246E+00  0.3292E+01
-12.994  0.1900E+00  0.3293E+01
-12.984  0.2606E+00  0.3296E+01
-12.974  0.3261E+00  0.3299E+01
-12.964  0.3816E+00  0.3303E+01
-12.954  0.4335E+00  0.3307E+01
-12.944  0.4969E+00  0.3312E+01
-12.934  0.5848E+00  0.3318E+01
-12.924  0.6945E+00  0.3325E+01
-12.914  0.8025E+00  0.3333E+01
-12.904  0.8726E+00  0.3342E+01
-12.894  0.8745E+00  0.3351E+01
-12.884  0.7992E+00  0.3359E+01
-12.874  0.6631E+00  0.3365E+01
-12.864  0.5003E+00  0.3370E+01
-12.854  0.3472E+00  0.3374E+01
-12.844  0.2313E+00  0.3376E+01
-12.834  0.1660E+00  0.3378E+01
-12.824  0.1514E+00  0.3379E+01
-12.814  0.1774E+00  0.3381E+01
-12.804  0.2263E+00  0.3383E+01
-12.794  0.2758E+00  0.3386E+01
-12.784  0.3051E+00  0.3389E+01
-12.774  0.3013E+00  0.3392E+01
-12.764  0.2644E+00  0.3395E+01
-12.754  0.2059E+00  0.3397E+01
-12.744  0.1424E+00  0.3398E+01
-12.734  0.8779E-01  0.3399E+01
-12.724  0.4952E-01  0.3400E+01
-12.714  0.2898E-01  0.3400E+01
-12.704  0.2510E-01  0.3400E+01
-12.694  0.3758E-01  0.3401E+01
-12.684  0.6768E-01  0.3401E+01
-12.674  0.1164E+00  0.3402E+01
-12.664  0.1809E+00  0.3404E+01
-12.654  0.2531E+00  0.3407E+01
-12.644  0.3209E+00  0.3410E+01
-12.634  0.3734E+00  0.3414E+01
-12.624  0.4064E+00  0.3418E+01
-12.614  0.4219E+00  0.3422E+01
-12.604  0.4246E+00  0.3426E+01
-12.594  0.4164E+00  0.3430E+01
-12.584  0.3969E+00  0.3434E+01
-12.574  0.3678E+00  0.3438E+01
-12.564  0.3371E+00  0.3441E+01
-12.554  0.3165E+00  0.3445E+01
-12.544  0.3140E+00  0.3448E+01
-12.534  0.3272E+00  0.3451E+01
-12.524  0.3446E+00  0.3454E+01
-12.514  0.3536E+00  0.3458E+01
-12.504  0.3499E+00  0.3461E+01
-12.494  0.3398E+00  0.3465E+01
-12.484  0.3342E+00  0.3468E+01
-12.474  0.3383E+00  0.3472E+01
-12.464  0.3469E+00  0.3475E+01
-12.454  0.3488E+00  0.3479E+01
-12.444  0.3363E+00  0.3482E+01
-12.434  0.3132E+00  0.3485E+01
-12.424  0.2935E+00  0.3488E+01
-12.414  0.2929E+00  0.3491E+01
-12.404  0.3186E+00  0.3494E+01
-12.394  0.3656E+00  0.3498E+01
-12.384  0.4194E+00  0.3502E+01
-12.374  0.4640E+00  0.3507E+01
-12.364  0.4874E+00  0.3511E+01
-12.354  0.4831E+00  0.3516E+01
-12.344  0.4495E+00  0.3521E+01
-12.334  0.3898E+00  0.3525E+01
-12.324  0.3118E+00  0.3528E+01
-12.314  0.2279E+00  0.3530E+01
-12.304  0.1508E+00  0.3532E+01
-12.294  0.8980E-01  0.3532E+01
-12.284  0.4797E-01  0.3533E+01
-12.274  0.2324E-01  0.3533E+01
-12.264  0.1124E-01  0.3533E+01
-12.254  0.8322E-02  0.3533E+01
-12.244  0.1340E-01  0.3534E+01
-12.234  0.2853E-01  0.3534E+01
-12.224  0.5818E-01  0.3534E+01
-12.214  0.1072E+00  0.3535E+01
-12.204  0.1775E+00  0.3537E+01
-12.194  0.2652E+00  0.3540E+01
-12.184  0.3592E+00  0.3543E+01
-12.174  0.4436E+00  0.3548E+01
-12.164  0.5021E+00  0.3553E+01
-12.154  0.5231E+00  0.3558E+01
-12.144  0.5023E+00  0.3563E+01
-12.134  0.4441E+00  0.3568E+01
-12.124  0.3608E+00  0.3571E+01
-12.114  0.2698E+00  0.3574E+01
-12.104  0.1892E+00  0.3576E+01
-12.094  0.1342E+00  0.3577E+01
-12.084  0.1141E+00  0.3578E+01
-12.074  0.1323E+00  0.3580E+01
-12.064  0.1861E+00  0.3581E+01
-12.054  0.2669E+00  0.3584E+01
-12.044  0.3611E+00  0.3588E+01
-12.034  0.4523E+00  0.3592E+01
-12.024  0.5262E+00  0.3598E+01
-12.014  0.5741E+00  0.3603E+01
-12.004  0.5950E+00  0.3609E+01
-11.994  0.5925E+00  0.3615E+01
-11.984  0.5717E+00  0.3621E+01
-11.974  0.5348E+00  0.3626E+01
-11.964  0.4817E+00  0.3631E+01
-11.954  0.4119E+00  0.3635E+01
-11.944  0.3291E+00  0.3638E+01
-11.934  0.2421E+00  0.3641E+01
-11.924  0.1620E+00  0.3643E+01
-11.914  0.9773E-01  0.3643E+01
-11.904  0.5287E-01  0.3644E+01
-11.894  0.2554E-01  0.3644E+01
-11.884  0.1100E-01  0.3644E+01
-11.874  0.4246E-02  0.3644E+01
-11.864  0.1605E-02  0.3644E+01
-11.854  0.1100E-02  0.3644E+01
-11.844  0.2378E-02  0.3644E+01
-11.834  0.6823E-02  0.3645E+01
-11.824  0.1812E-01  0.3645E+01
-11.814  0.4289E-01  0.3645E+01
-11.804  0.9022E-01  0.3646E+01
-11.794  0.1688E+00  0.3648E+01
-11.784  0.2812E+00  0.3651E+01
-11.774  0.4184E+00  0.3655E+01
-11.764  0.5581E+00  0.3660E+01
-11.754  0.6716E+00  0.3667E+01
-11.744  0.7351E+00  0.3674E+01
-11.734  0.7399E+00  0.3682E+01
-11.724  0.6928E+00  0.3689E+01
-11.714  0.6097E+00  0.3695E+01
-11.704  0.5066E+00  0.3700E+01
-11.694  0.3963E+00  0.3704E+01
-11.684  0.2894E+00  0.3707E+01
-11.674  0.1949E+00  0.3709E+01
-11.664  0.1198E+00  0.3710E+01
-11.654  0.6665E-01  0.3711E+01
-11.644  0.3386E-01  0.3711E+01
-11.634  0.1722E-01  0.3711E+01
-11.624  0.1317E-01  0.3711E+01
-11.614  0.2126E-01  0.3711E+01
-11.604  0.4539E-01  0.3712E+01
-11.594  0.9283E-01  0.3713E+01
-11.584  0.1704E+00  0.3714E+01
-11.574  0.2784E+00  0.3717E+01
-11.564  0.4039E+00  0.3721E+01
-11.554  0.5205E+00  0.3727E+01
-11.544  0.5958E+00  0.3732E+01
-11.534  0.6058E+00  0.3739E+01
-11.524  0.5471E+00  0.3744E+01
-11.514  0.4389E+00  0.3748E+01
-11.504  0.3127E+00  0.3752E+01
-11.494  0.1979E+00  0.3753E+01
-11.484  0.1114E+00  0.3755E+01
-11.474  0.5599E-01  0.3755E+01
-11.464  0.2615E-01  0.3755E+01
-11.454  0.1426E-01  0.3756E+01
-11.444  0.1559E-01  0.3756E+01
-11.434  0.3020E-01  0.3756E+01
-11.424  0.6262E-01  0.3757E+01
-11.414  0.1197E+00  0.3758E+01
-11.404  0.2065E+00  0.3760E+01
-11.394  0.3220E+00  0.3763E+01
-11.384  0.4554E+00  0.3768E+01
-11.374  0.5872E+00  0.3774E+01
-11.364  0.6938E+00  0.3781E+01
-11.354  0.7548E+00  0.3788E+01
-11.344  0.7586E+00  0.3796E+01
-11.334  0.7057E+00  0.3803E+01
-11.324  0.6071E+00  0.3809E+01
-11.314  0.4816E+00  0.3814E+01
-11.304  0.3505E+00  0.3817E+01
-11.294  0.2329E+00  0.3819E+01
-11.284  0.1404E+00  0.3821E+01
-11.274  0.7649E-01  0.3822E+01
-11.264  0.3747E-01  0.3822E+01
-11.254  0.1646E-01  0.3822E+01
-11.244  0.6487E-02  0.3822E+01
-11.234  0.2377E-02  0.3822E+01
-11.224  0.1132E-02  0.3822E+01
-11.214  0.1609E-02  0.3822E+01
-11.204  0.4216E-02  0.3822E+01
-11.194  0.1094E-01  0.3822E+01
-11.184  0.2550E-01  0.3823E+01
-11.174  0.5302E-01  0.3823E+01
-11.164  0.9854E-01  0.3824E+01
-11.154  0.1642E+00  0.3826E+01
-11.144  0.2467E+00  0.3828E+01
-11.134  0.3360E+00  0.3832E+01
-11.124  0.4182E+00  0.3836E+01
-11.114  0.4798E+00  0.3841E+01
-11.104  0.5119E+00  0.3846E+01
-11.094  0.5126E+00  0.3851E+01
-11.084  0.4874E+00  0.3856E+01
-11.074  0.4482E+00  0.3860E+01
-11.064  0.4097E+00  0.3864E+01
-11.054  0.3833E+00  0.3868E+01
-11.044  0.3711E+00  0.3872E+01
-11.034  0.3645E+00  0.3875E+01
-11.024  0.3504E+00  0.3879E+01
-11.014  0.3213E+00  0.3882E+01
-11.004  0.2822E+00  0.3885E+01
-10.994  0.2496E+00  0.3888E+01
-10.984  0.2436E+00  0.3890E+01
-10.974  0.2768E+00  0.3893E+01
-10.964  0.3474E+00  0.3896E+01
-10.954  0.4381E+00  0.3901E+01
-10.944  0.5210E+00  0.3906E+01
-10.934  0.5683E+00  0.3911E+01
-10.924  0.5628E+00  0.3917E+01
-10.914  0.5038E+00  0.3922E+01
-10.904  0.4070E+00  0.3926E+01
-10.894  0.2962E+00  0.3929E+01
-10.884  0.1939E+00  0.3931E+01
-10.874  0.1140E+00  0.3932E+01
-10.864  0.6007E-01  0.3933E+01
-10.854  0.2833E-01  0.3933E+01
-10.844  0.1199E-01  0.3933E+01
-10.834  0.4717E-02  0.3933E+01
-10.824  0.2321E-02  0.3933E+01
-10.814  0.2992E-02  0.3933E+01
-10.804  0.7127E-02  0.3933E+01
-10.794  0.1716E-01  0.3934E+01
-10.784  0.3717E-01  0.3934E+01
-10.774  0.7162E-01  0.3935E+01
-10.764  0.1228E+00  0.3936E+01
-10.754  0.1877E+00  0.3938E+01
-10.744  0.2574E+00  0.3940E+01
-10.734  0.3191E+00  0.3944E+01
-10.724  0.3636E+00  0.3947E+01
-10.714  0.3896E+00  0.3951E+01
-10.704  0.4052E+00  0.3955E+01
-10.694  0.4216E+00  0.3959E+01
-10.684  0.4483E+00  0.3964E+01
-10.674  0.4916E+00  0.3969E+01
-10.664  0.5591E+00  0.3974E+01
-10.654  0.6629E+00  0.3981E+01
-10.644  0.8154E+00  0.3989E+01
-10.634  0.1019E+01  0.3999E+01
-10.624  0.1258E+01  0.4012E+01
-10.614  0.1495E+01  0.4027E+01
-10.604  0.1686E+01  0.4044E+01
-10.594  0.1800E+01  0.4062E+01
-10.584  0.1835E+01  0.4080E+01
-10.574  0.1810E+01  0.4098E+01
-10.564  0.1758E+01  0.4116E+01
-10.554  0.1701E+01  0.4133E+01
-10.544  0.1642E+01  0.4149E+01
-10.534  0.1567E+01  0.4165E+01
-10.524  0.1461E+01  0.4179E+01
-10.514  0.1320E+01  0.4193E+01
-10.504  0.1155E+01  0.4204E+01
-10.494  0.9890E+00  0.4214E+01
-10.484  0.8408E+00  0.4222E+01
-10.474  0.7233E+00  0.4230E+01
-10.464  0.6407E+00  0.4236E+01
-10.454  0.5924E+00  0.4242E+01
-10.444  0.5756E+00  0.4248E+01
-10.434  0.5847E+00  0.4254E+01
-10.424  0.6109E+00  0.4260E+01
-10.414  0.6432E+00  0.4266E+01
-10.404  0.6722E+00  0.4273E+01
-10.394  0.6924E+00  0.4280E+01
-10.384  0.7040E+00  0.4287E+01
-10.374  0.7133E+00  0.4294E+01
-10.364  0.7310E+00  0.4301E+01
-10.354  0.7678E+00  0.4309E+01
-10.344  0.8270E+00  0.4317E+01
-10.334  0.8973E+00  0.4326E+01
-10.324  0.9522E+00  0.4336E+01
-10.314  0.9600E+00  0.4345E+01
-10.304  0.8995E+00  0.4354E+01
-10.294  0.7732E+00  0.4362E+01
-10.284  0.6079E+00  0.4368E+01
-10.274  0.4442E+00  0.4373E+01
-10.264  0.3225E+00  0.4376E+01
-10.254  0.2731E+00  0.4379E+01
-10.244  0.3122E+00  0.4382E+01
-10.234  0.4397E+00  0.4386E+01
-10.224  0.6355E+00  0.4392E+01
-10.214  0.8580E+00  0.4401E+01
-10.204  0.1050E+01  0.4412E+01
-10.194  0.1156E+01  0.4423E+01
-10.184  0.1147E+01  0.4435E+01
-10.174  0.1028E+01  0.4445E+01
-10.164  0.8437E+00  0.4453E+01
-10.154  0.6505E+00  0.4460E+01
-10.144  0.4992E+00  0.4465E+01
-10.134  0.4180E+00  0.4469E+01
-10.124  0.4101E+00  0.4473E+01
-10.114  0.4616E+00  0.4478E+01
-10.104  0.5530E+00  0.4483E+01
-10.094  0.6664E+00  0.4490E+01
-10.084  0.7850E+00  0.4498E+01
-10.074  0.8883E+00  0.4507E+01
-10.064  0.9507E+00  0.4516E+01
-10.054  0.9483E+00  0.4526E+01
-10.044  0.8714E+00  0.4534E+01
-10.034  0.7326E+00  0.4542E+01
-10.024  0.5643E+00  0.4547E+01
-10.014  0.4066E+00  0.4551E+01
-10.004  0.2932E+00  0.4554E+01
 -9.994  0.2430E+00  0.4557E+01
 -9.984  0.2587E+00  0.4559E+01
 -9.974  0.3302E+00  0.4563E+01
 -9.964  0.4395E+00  0.4567E+01
 -9.954  0.5662E+00  0.4573E+01
 -9.944  0.6914E+00  0.4580E+01
 -9.934  0.7995E+00  0.4588E+01
 -9.924  0.8774E+00  0.4596E+01
 -9.914  0.9131E+00  0.4605E+01
 -9.904  0.8966E+00  0.4614E+01
 -9.894  0.8237E+00  0.4623E+01
 -9.884  0.7016E+00  0.4630E+01
 -9.874  0.5497E+00  0.4635E+01
 -9.864  0.3952E+00  0.4639E+01
 -9.854  0.2642E+00  0.4642E+01
 -9.844  0.1757E+00  0.4644E+01
 -9.834  0.1396E+00  0.4645E+01
 -9.824  0.1586E+00  0.4647E+01
 -9.814  0.2291E+00  0.4649E+01
 -9.804  0.3401E+00  0.4652E+01
 -9.794  0.4712E+00  0.4657E+01
 -9.784  0.5955E+00  0.4663E+01
 -9.774  0.6890E+00  0.4670E+01
 -9.764  0.7409E+00  0.4677E+01
 -9.754  0.7593E+00  0.4685E+01
 -9.744  0.7651E+00  0.4692E+01
 -9.734  0.7798E+00  0.4700E+01
 -9.724  0.8146E+00  0.4708E+01
 -9.714  0.8665E+00  0.4717E+01
 -9.704  0.9203E+00  0.4726E+01
 -9.694  0.9542E+00  0.4736E+01
 -9.684  0.9475E+00  0.4745E+01
 -9.674  0.8888E+00  0.4754E+01
 -9.664  0.7846E+00  0.4762E+01
 -9.654  0.6616E+00  0.4769E+01
 -9.644  0.5599E+00  0.4774E+01
 -9.634  0.5180E+00  0.4779E+01
 -9.624  0.5545E+00  0.4785E+01
 -9.614  0.6578E+00  0.4791E+01
 -9.604  0.7866E+00  0.4799E+01
 -9.594  0.8865E+00  0.4808E+01
 -9.584  0.9135E+00  0.4817E+01
 -9.574  0.8555E+00  0.4826E+01
 -9.564  0.7374E+00  0.4833E+01
 -9.554  0.6080E+00  0.4839E+01
 -9.544  0.5165E+00  0.4845E+01
 -9.534  0.4905E+00  0.4849E+01
 -9.524  0.5280E+00  0.4855E+01
 -9.514  0.6028E+00  0.4861E+01
 -9.504  0.6812E+00  0.4868E+01
 -9.494  0.7406E+00  0.4875E+01
 -9.484  0.7808E+00  0.4883E+01
 -9.474  0.8230E+00  0.4891E+01
 -9.464  0.8993E+00  0.4900E+01
 -9.454  0.1036E+01  0.4910E+01
 -9.444  0.1235E+01  0.4923E+01
 -9.434  0.1471E+01  0.4937E+01
 -9.424  0.1686E+01  0.4954E+01
 -9.414  0.1818E+01  0.4972E+01
 -9.404  0.1822E+01  0.4991E+01
 -9.394  0.1694E+01  0.5008E+01
 -9.384  0.1472E+01  0.5022E+01
 -9.374  0.1215E+01  0.5034E+01
 -9.364  0.9774E+00  0.5044E+01
 -9.354  0.7951E+00  0.5052E+01
 -9.344  0.6810E+00  0.5059E+01
 -9.334  0.6361E+00  0.5065E+01
 -9.324  0.6551E+00  0.5072E+01
 -9.314  0.7281E+00  0.5079E+01
 -9.304  0.8398E+00  0.5088E+01
 -9.294  0.9714E+00  0.5097E+01
 -9.284  0.1104E+01  0.5108E+01
 -9.274  0.1224E+01  0.5121E+01
 -9.264  0.1316E+01  0.5134E+01
 -9.254  0.1368E+01  0.5147E+01
 -9.244  0.1368E+01  0.5161E+01
 -9.234  0.1313E+01  0.5174E+01
 -9.224  0.1210E+01  0.5186E+01
 -9.214  0.1076E+01  0.5197E+01
 -9.204  0.9345E+00  0.5206E+01
 -9.194  0.8020E+00  0.5214E+01
 -9.184  0.6873E+00  0.5221E+01
 -9.174  0.5884E+00  0.5227E+01
 -9.164  0.4974E+00  0.5232E+01
 -9.154  0.4084E+00  0.5236E+01
 -9.144  0.3230E+00  0.5240E+01
 -9.134  0.2509E+00  0.5242E+01
 -9.124  0.2050E+00  0.5244E+01
 -9.114  0.1941E+00  0.5246E+01
 -9.104  0.2169E+00  0.5248E+01
 -9.094  0.2610E+00  0.5251E+01
 -9.084  0.3080E+00  0.5254E+01
 -9.074  0.3426E+00  0.5257E+01
 -9.064  0.3606E+00  0.5261E+01
 -9.054  0.3716E+00  0.5265E+01
 -9.044  0.3930E+00  0.5269E+01
 -9.034  0.4397E+00  0.5273E+01
 -9.024  0.5154E+00  0.5278E+01
 -9.014  0.6097E+00  0.5284E+01
 -9.004  0.7016E+00  0.5291E+01
 -8.994  0.7659E+00  0.5299E+01
 -8.984  0.7806E+00  0.5307E+01
 -8.974  0.7346E+00  0.5314E+01
 -8.964  0.6334E+00  0.5320E+01
 -8.954  0.4991E+00  0.5325E+01
 -8.944  0.3640E+00  0.5329E+01
 -8.934  0.2602E+00  0.5332E+01
 -8.924  0.2129E+00  0.5334E+01
 -8.914  0.2370E+00  0.5336E+01
 -8.904  0.3355E+00  0.5339E+01
 -8.894  0.4975E+00  0.5344E+01
 -8.884  0.6948E+00  0.5351E+01
 -8.874  0.8845E+00  0.5360E+01
 -8.864  0.1021E+01  0.5370E+01
 -8.854  0.1070E+01  0.5381E+01
 -8.844  0.1026E+01  0.5391E+01
 -8.834  0.9062E+00  0.5400E+01
 -8.824  0.7475E+00  0.5408E+01
 -8.814  0.5910E+00  0.5414E+01
 -8.804  0.4743E+00  0.5419E+01
 -8.794  0.4255E+00  0.5423E+01
 -8.784  0.4572E+00  0.5427E+01
 -8.774  0.5603E+00  0.5433E+01
 -8.764  0.7017E+00  0.5440E+01
 -8.754  0.8310E+00  0.5448E+01
 -8.744  0.8979E+00  0.5457E+01
 -8.734  0.8732E+00  0.5466E+01
 -8.724  0.7606E+00  0.5474E+01
 -8.714  0.5923E+00  0.5480E+01
 -8.704  0.4122E+00  0.5484E+01
 -8.694  0.2569E+00  0.5486E+01
 -8.684  0.1447E+00  0.5488E+01
 -8.674  0.7764E-01  0.5489E+01
 -8.664  0.4877E-01  0.5489E+01
 -8.654  0.5033E-01  0.5489E+01
 -8.644  0.7709E-01  0.5490E+01
 -8.634  0.1248E+00  0.5492E+01
 -8.624  0.1862E+00  0.5493E+01
 -8.614  0.2488E+00  0.5496E+01
 -8.604  0.2966E+00  0.5499E+01
 -8.594  0.3179E+00  0.5502E+01
 -8.584  0.3123E+00  0.5505E+01
 -8.574  0.2940E+00  0.5508E+01
 -8.564  0.2863E+00  0.5511E+01
 -8.554  0.3105E+00  0.5514E+01
 -8.544  0.3751E+00  0.5518E+01
 -8.534  0.4704E+00  0.5522E+01
 -8.524  0.5739E+00  0.5528E+01
 -8.514  0.6628E+00  0.5535E+01
 -8.504  0.7280E+00  0.5542E+01
 -8.494  0.7790E+00  0.5550E+01
 -8.484  0.8357E+00  0.5558E+01
 -8.474  0.9102E+00  0.5567E+01
 -8.464  0.9943E+00  0.5577E+01
 -8.454  0.1060E+01  0.5588E+01
 -8.444  0.1077E+01  0.5599E+01
 -8.434  0.1029E+01  0.5609E+01
 -8.424  0.9217E+00  0.5618E+01
 -8.414  0.7754E+00  0.5626E+01
 -8.404  0.6146E+00  0.5632E+01
 -8.394  0.4591E+00  0.5637E+01
 -8.384  0.3221E+00  0.5640E+01
 -8.374  0.2126E+00  0.5642E+01
 -8.364  0.1361E+00  0.5643E+01
 -8.354  0.9528E-01  0.5644E+01
 -8.344  0.8995E-01  0.5645E+01
 -8.334  0.1172E+00  0.5646E+01
 -8.324  0.1707E+00  0.5648E+01
 -8.314  0.2396E+00  0.5651E+01
 -8.304  0.3099E+00  0.5654E+01
 -8.294  0.3688E+00  0.5657E+01
 -8.284  0.4089E+00  0.5661E+01
 -8.274  0.4300E+00  0.5666E+01
 -8.264  0.4356E+00  0.5670E+01
 -8.254  0.4285E+00  0.5674E+01
 -8.244  0.4099E+00  0.5678E+01
 -8.234  0.3837E+00  0.5682E+01
 -8.224  0.3600E+00  0.5686E+01
 -8.214  0.3541E+00  0.5689E+01
 -8.204  0.3788E+00  0.5693E+01
 -8.194  0.4370E+00  0.5698E+01
 -8.184  0.5189E+00  0.5703E+01
 -8.174  0.6064E+00  0.5709E+01
 -8.164  0.6792E+00  0.5716E+01
 -8.154  0.7203E+00  0.5723E+01
 -8.144  0.7189E+00  0.5730E+01
 -8.134  0.6720E+00  0.5737E+01
 -8.124  0.5862E+00  0.5743E+01
 -8.114  0.4777E+00  0.5747E+01
 -8.104  0.3700E+00  0.5751E+01
 -8.094  0.2867E+00  0.5754E+01
 -8.084  0.2446E+00  0.5756E+01
 -8.074  0.2476E+00  0.5759E+01
 -8.064  0.2874E+00  0.5762E+01
 -8.054  0.3475E+00  0.5765E+01
 -8.044  0.4122E+00  0.5769E+01
 -8.034  0.4734E+00  0.5774E+01
 -8.024  0.5320E+00  0.5779E+01
 -8.014  0.5932E+00  0.5785E+01
 -8.004  0.6587E+00  0.5792E+01
 -7.994  0.7219E+00  0.5799E+01
 -7.984  0.7681E+00  0.5807E+01
 -7.974  0.7801E+00  0.5815E+01
 -7.964  0.7456E+00  0.5822E+01
 -7.954  0.6631E+00  0.5829E+01
 -7.944  0.5443E+00  0.5834E+01
 -7.934  0.4110E+00  0.5838E+01
 -7.924  0.2882E+00  0.5841E+01
 -7.914  0.1970E+00  0.5843E+01
 -7.904  0.1508E+00  0.5845E+01
 -7.894  0.1541E+00  0.5846E+01
 -7.884  0.2041E+00  0.5848E+01
 -7.874  0.2903E+00  0.5851E+01
 -7.864  0.3948E+00  0.5855E+01
 -7.854  0.4944E+00  0.5860E+01
 -7.844  0.5667E+00  0.5866E+01
 -7.834  0.5982E+00  0.5872E+01
 -7.824  0.5894E+00  0.5878E+01
 -7.814  0.5538E+00  0.5883E+01
 -7.804  0.5090E+00  0.5888E+01
 -7.794  0.4671E+00  0.5893E+01
 -7.784  0.4288E+00  0.5897E+01
 -7.774  0.3876E+00  0.5901E+01
 -7.764  0.3386E+00  0.5904E+01
 -7.754  0.2867E+00  0.5907E+01
 -7.744  0.2461E+00  0.5910E+01
 -7.734  0.2343E+00  0.5912E+01
 -7.724  0.2625E+00  0.5915E+01
 -7.714  0.3287E+00  0.5918E+01
 -7.704  0.4170E+00  0.5922E+01
 -7.694  0.5029E+00  0.5927E+01
 -7.684  0.5622E+00  0.5933E+01
 -7.674  0.5814E+00  0.5939E+01
 -7.664  0.5639E+00  0.5944E+01
 -7.654  0.5294E+00  0.5950E+01
 -7.644  0.5047E+00  0.5955E+01
 -7.634  0.5100E+00  0.5960E+01
 -7.624  0.5478E+00  0.5965E+01
 -7.614  0.6007E+00  0.5971E+01
 -7.604  0.6412E+00  0.5978E+01
 -7.594  0.6481E+00  0.5984E+01
 -7.584  0.6182E+00  0.5990E+01
 -7.574  0.5662E+00  0.5996E+01
 -7.564  0.5132E+00  0.6001E+01
 -7.554  0.4737E+00  0.6006E+01
 -7.544  0.4500E+00  0.6010E+01
 -7.534  0.4366E+00  0.6015E+01
 -7.524  0.4277E+00  0.6019E+01
 -7.514  0.4204E+00  0.6023E+01
 -7.504  0.4124E+00  0.6027E+01
 -7.494  0.3989E+00  0.6031E+01
 -7.484  0.3751E+00  0.6035E+01
 -7.474  0.3420E+00  0.6038E+01
 -7.464  0.3117E+00  0.6042E+01
 -7.454  0.3035E+00  0.6045E+01
 -7.444  0.3344E+00  0.6048E+01
 -7.434  0.4062E+00  0.6052E+01
 -7.424  0.5004E+00  0.6057E+01
 -7.414  0.5828E+00  0.6063E+01
 -7.404  0.6195E+00  0.6069E+01
 -7.394  0.5938E+00  0.6075E+01
 -7.384  0.5150E+00  0.6080E+01
 -7.374  0.4137E+00  0.6084E+01
 -7.364  0.3258E+00  0.6087E+01
 -7.354  0.2763E+00  0.6090E+01
 -7.344  0.2697E+00  0.6093E+01
 -7.334  0.2922E+00  0.6096E+01
 -7.324  0.3219E+00  0.6099E+01
 -7.314  0.3422E+00  0.6103E+01
 -7.304  0.3518E+00  0.6106E+01
 -7.294  0.3661E+00  0.6110E+01
 -7.284  0.4079E+00  0.6114E+01
 -7.274  0.4920E+00  0.6119E+01
 -7.264  0.6126E+00  0.6125E+01
 -7.254  0.7412E+00  0.6132E+01
 -7.244  0.8369E+00  0.6141E+01
 -7.234  0.8649E+00  0.6149E+01
 -7.224  0.8120E+00  0.6157E+01
 -7.214  0.6922E+00  0.6164E+01
 -7.204  0.5396E+00  0.6170E+01
 -7.194  0.3947E+00  0.6174E+01
 -7.184  0.2902E+00  0.6177E+01
 -7.174  0.2443E+00  0.6179E+01
 -7.164  0.2581E+00  0.6182E+01
 -7.154  0.3190E+00  0.6185E+01
 -7.144  0.4039E+00  0.6189E+01
 -7.134  0.4859E+00  0.6194E+01
 -7.124  0.5408E+00  0.6199E+01
 -7.114  0.5541E+00  0.6205E+01
 -7.104  0.5255E+00  0.6210E+01
 -7.094  0.4693E+00  0.6215E+01
 -7.084  0.4088E+00  0.6219E+01
 -7.074  0.3676E+00  0.6222E+01
 -7.064  0.3605E+00  0.6226E+01
 -7.054  0.3885E+00  0.6230E+01
 -7.044  0.4423E+00  0.6234E+01
 -7.034  0.5083E+00  0.6239E+01
 -7.024  0.5750E+00  0.6245E+01
 -7.014  0.6325E+00  0.6251E+01
 -7.004  0.6703E+00  0.6258E+01
 -6.994  0.6764E+00  0.6265E+01
 -6.984  0.6418E+00  0.6271E+01
 -6.974  0.5686E+00  0.6277E+01
 -6.964  0.4728E+00  0.6282E+01
 -6.954  0.3803E+00  0.6285E+01
 -6.944  0.3161E+00  0.6289E+01
 -6.934  0.2942E+00  0.6292E+01
 -6.924  0.3124E+00  0.6295E+01
 -6.914  0.3557E+00  0.6298E+01
 -6.904  0.4049E+00  0.6302E+01
 -6.894  0.4450E+00  0.6307E+01
 -6.884  0.4688E+00  0.6311E+01
 -6.874  0.4759E+00  0.6316E+01
 -6.864  0.4693E+00  0.6321E+01
 -6.854  0.4543E+00  0.6325E+01
 -6.844  0.4388E+00  0.6330E+01
 -6.834  0.4318E+00  0.6334E+01
 -6.824  0.4398E+00  0.6339E+01
 -6.814  0.4638E+00  0.6343E+01
 -6.804  0.5002E+00  0.6348E+01
 -6.794  0.5449E+00  0.6354E+01
 -6.784  0.5960E+00  0.6360E+01
 -6.774  0.6529E+00  0.6366E+01
 -6.764  0.7129E+00  0.6373E+01
 -6.754  0.7698E+00  0.6381E+01
 -6.744  0.8147E+00  0.6389E+01
 -6.734  0.8391E+00  0.6397E+01
 -6.724  0.8367E+00  0.6406E+01
 -6.714  0.8043E+00  0.6414E+01
 -6.704  0.7418E+00  0.6421E+01
 -6.694  0.6526E+00  0.6428E+01
 -6.684  0.5452E+00  0.6433E+01
 -6.674  0.4335E+00  0.6438E+01
 -6.664  0.3357E+00  0.6441E+01
 -6.654  0.2687E+00  0.6444E+01
 -6.644  0.2419E+00  0.6446E+01
 -6.634  0.2519E+00  0.6449E+01
 -6.624  0.2832E+00  0.6451E+01
 -6.614  0.3150E+00  0.6455E+01
 -6.604  0.3317E+00  0.6458E+01
 -6.594  0.3325E+00  0.6461E+01
 -6.584  0.3336E+00  0.6465E+01
 -6.574  0.3600E+00  0.6468E+01
 -6.564  0.4321E+00  0.6472E+01
 -6.554  0.5523E+00  0.6478E+01
 -6.544  0.7002E+00  0.6485E+01
 -6.534  0.8397E+00  0.6493E+01
 -6.524  0.9350E+00  0.6503E+01
 -6.514  0.9650E+00  0.6512E+01
 -6.504  0.9288E+00  0.6522E+01
 -6.494  0.8413E+00  0.6530E+01
 -6.484  0.7224E+00  0.6537E+01
 -6.474  0.5910E+00  0.6543E+01
 -6.464  0.4640E+00  0.6548E+01
 -6.454  0.3590E+00  0.6551E+01
 -6.444  0.2955E+00  0.6554E+01
 -6.434  0.2919E+00  0.6557E+01
 -6.424  0.3585E+00  0.6561E+01
 -6.414  0.4911E+00  0.6566E+01
 -6.404  0.6674E+00  0.6573E+01
 -6.394  0.8500E+00  0.6581E+01
 -6.384  0.9960E+00  0.6591E+01
 -6.374  0.1070E+01  0.6602E+01
 -6.364  0.1056E+01  0.6612E+01
 -6.354  0.9618E+00  0.6622E+01
 -6.344  0.8166E+00  0.6630E+01
 -6.334  0.6627E+00  0.6637E+01
 -6.324  0.5413E+00  0.6642E+01
 -6.314  0.4796E+00  0.6647E+01
 -6.304  0.4822E+00  0.6652E+01
 -6.294  0.5313E+00  0.6657E+01
 -6.284  0.5970E+00  0.6663E+01
 -6.274  0.6529E+00  0.6669E+01
 -6.264  0.6880E+00  0.6676E+01
 -6.254  0.7105E+00  0.6683E+01
 -6.244  0.7380E+00  0.6691E+01
 -6.234  0.7838E+00  0.6699E+01
 -6.224  0.8469E+00  0.6707E+01
 -6.214  0.9145E+00  0.6716E+01
 -6.204  0.9715E+00  0.6726E+01
 -6.194  0.1009E+01  0.6736E+01
 -6.184  0.1028E+01  0.6746E+01
 -6.174  0.1028E+01  0.6757E+01
 -6.164  0.1012E+01  0.6767E+01
 -6.154  0.9830E+00  0.6777E+01
 -6.144  0.9472E+00  0.6786E+01
 -6.134  0.9183E+00  0.6795E+01
 -6.124  0.9131E+00  0.6804E+01
 -6.114  0.9467E+00  0.6814E+01
 -6.104  0.1031E+01  0.6824E+01
 -6.094  0.1172E+01  0.6836E+01
 -6.084  0.1374E+01  0.6850E+01
 -6.074  0.1628E+01  0.6866E+01
 -6.064  0.1907E+01  0.6885E+01
 -6.054  0.2163E+01  0.6907E+01
 -6.044  0.2338E+01  0.6930E+01
 -6.034  0.2376E+01  0.6954E+01
 -6.024  0.2253E+01  0.6976E+01
 -6.014  0.1986E+01  0.6996E+01
 -6.004  0.1631E+01  0.7012E+01
 -5.994  0.1260E+01  0.7025E+01
 -5.984  0.9343E+00  0.7034E+01
 -5.974  0.6921E+00  0.7041E+01
 -5.964  0.5370E+00  0.7047E+01
 -5.954  0.4480E+00  0.7051E+01
 -5.944  0.3925E+00  0.7055E+01
 -5.934  0.3421E+00  0.7059E+01
 -5.924  0.2820E+00  0.7061E+01
 -5.914  0.2131E+00  0.7063E+01
 -5.904  0.1451E+00  0.7065E+01
 -5.894  0.8836E-01  0.7066E+01
 -5.884  0.4789E-01  0.7066E+01
 -5.874  0.2307E-01  0.7067E+01
 -5.864  0.9863E-02  0.7067E+01
 -5.854  0.3742E-02  0.7067E+01
 -5.844  0.1260E-02  0.7067E+01
 -5.834  0.3786E-03  0.7067E+01
 -5.824  0.1132E-03  0.7067E+01
 -5.814  0.8436E-04  0.7067E+01
 -5.804  0.2450E-03  0.7067E+01
 -5.794  0.8396E-03  0.7067E+01
 -5.784  0.2598E-02  0.7067E+01
 -5.774  0.7135E-02  0.7067E+01
 -5.764  0.1738E-01  0.7067E+01
 -5.754  0.3756E-01  0.7067E+01
 -5.744  0.7196E-01  0.7068E+01
 -5.734  0.1223E+00  0.7069E+01
 -5.724  0.1843E+00  0.7071E+01
 -5.714  0.2465E+00  0.7074E+01
 -5.704  0.2925E+00  0.7077E+01
 -5.694  0.3086E+00  0.7080E+01
 -5.684  0.2909E+00  0.7082E+01
 -5.674  0.2485E+00  0.7085E+01
 -5.664  0.2004E+00  0.7087E+01
 -5.654  0.1672E+00  0.7089E+01
 -5.644  0.1625E+00  0.7090E+01
 -5.634  0.1884E+00  0.7092E+01
 -5.624  0.2341E+00  0.7095E+01
 -5.614  0.2804E+00  0.7097E+01
 -5.604  0.3071E+00  0.7100E+01
 -5.594  0.3018E+00  0.7103E+01
 -5.584  0.2655E+00  0.7106E+01
 -5.574  0.2116E+00  0.7108E+01
 -5.564  0.1598E+00  0.7110E+01
 -5.554  0.1277E+00  0.7111E+01
 -5.544  0.1260E+00  0.7112E+01
 -5.534  0.1550E+00  0.7114E+01
 -5.524  0.2055E+00  0.7116E+01
 -5.514  0.2600E+00  0.7119E+01
 -5.504  0.2986E+00  0.7121E+01
 -5.494  0.3062E+00  0.7125E+01
 -5.484  0.2792E+00  0.7127E+01
 -5.474  0.2260E+00  0.7130E+01
 -5.464  0.1629E+00  0.7131E+01
 -5.454  0.1058E+00  0.7132E+01
 -5.444  0.6580E-01  0.7133E+01
 -5.434  0.4773E-01  0.7133E+01
 -5.424  0.5341E-01  0.7134E+01
 -5.414  0.8394E-01  0.7135E+01
 -5.404  0.1404E+00  0.7136E+01
 -5.394  0.2229E+00  0.7138E+01
 -5.384  0.3311E+00  0.7142E+01
 -5.374  0.4664E+00  0.7146E+01
 -5.364  0.6338E+00  0.7153E+01
 -5.354  0.8383E+00  0.7161E+01
 -5.344  0.1075E+01  0.7172E+01
 -5.334  0.1319E+01  0.7185E+01
 -5.324  0.1526E+01  0.7200E+01
 -5.314  0.1649E+01  0.7217E+01
 -5.304  0.1663E+01  0.7233E+01
 -5.294  0.1575E+01  0.7249E+01
 -5.284  0.1422E+01  0.7263E+01
 -5.274  0.1251E+01  0.7276E+01
 -5.264  0.1101E+01  0.7287E+01
 -5.254  0.9949E+00  0.7297E+01
 -5.244  0.9376E+00  0.7306E+01
 -5.234  0.9216E+00  0.7315E+01
 -5.224  0.9301E+00  0.7325E+01
 -5.214  0.9415E+00  0.7334E+01
 -5.204  0.9353E+00  0.7344E+01
 -5.194  0.8994E+00  0.7353E+01
 -5.184  0.8346E+00  0.7361E+01
 -5.174  0.7527E+00  0.7368E+01
 -5.164  0.6703E+00  0.7375E+01
 -5.154  0.5999E+00  0.7381E+01
 -5.144  0.5465E+00  0.7387E+01
 -5.134  0.5086E+00  0.7392E+01
 -5.124  0.4825E+00  0.7396E+01
 -5.114  0.4652E+00  0.7401E+01
 -5.104  0.4536E+00  0.7406E+01
 -5.094  0.4436E+00  0.7410E+01
 -5.084  0.4323E+00  0.7414E+01
 -5.074  0.4202E+00  0.7419E+01
 -5.064  0.4106E+00  0.7423E+01
 -5.054  0.4055E+00  0.7427E+01
 -5.044  0.4025E+00  0.7431E+01
 -5.034  0.3965E+00  0.7435E+01
 -5.024  0.3851E+00  0.7439E+01
 -5.014  0.3721E+00  0.7442E+01
 -5.004  0.3644E+00  0.7446E+01
 -4.994  0.3648E+00  0.7450E+01
 -4.984  0.3685E+00  0.7453E+01
 -4.974  0.3666E+00  0.7457E+01
 -4.964  0.3548E+00  0.7461E+01
 -4.954  0.3376E+00  0.7464E+01
 -4.944  0.3258E+00  0.7467E+01
 -4.934  0.3265E+00  0.7470E+01
 -4.924  0.3370E+00  0.7474E+01
 -4.914  0.3459E+00  0.7477E+01
 -4.904  0.3422E+00  0.7481E+01
 -4.894  0.3251E+00  0.7484E+01
 -4.884  0.3058E+00  0.7487E+01
 -4.874  0.3011E+00  0.7490E+01
 -4.864  0.3224E+00  0.7493E+01
 -4.854  0.3695E+00  0.7497E+01
 -4.844  0.4306E+00  0.7501E+01
 -4.834  0.4899E+00  0.7506E+01
 -4.824  0.5343E+00  0.7511E+01
 -4.814  0.5585E+00  0.7517E+01
 -4.804  0.5634E+00  0.7523E+01
 -4.794  0.5534E+00  0.7528E+01
 -4.784  0.5320E+00  0.7534E+01
 -4.774  0.4995E+00  0.7539E+01
 -4.764  0.4541E+00  0.7543E+01
 -4.754  0.3958E+00  0.7547E+01
 -4.744  0.3306E+00  0.7550E+01
 -4.734  0.2717E+00  0.7553E+01
 -4.724  0.2343E+00  0.7555E+01
 -4.714  0.2278E+00  0.7558E+01
 -4.704  0.2493E+00  0.7560E+01
 -4.694  0.2839E+00  0.7563E+01
 -4.684  0.3105E+00  0.7566E+01
 -4.674  0.3129E+00  0.7569E+01
 -4.664  0.2879E+00  0.7572E+01
 -4.654  0.2466E+00  0.7575E+01
 -4.644  0.2086E+00  0.7577E+01
 -4.634  0.1922E+00  0.7579E+01
 -4.624  0.2051E+00  0.7581E+01
 -4.614  0.2411E+00  0.7583E+01
 -4.604  0.2826E+00  0.7586E+01
 -4.594  0.3089E+00  0.7589E+01
 -4.584  0.3064E+00  0.7592E+01
 -4.574  0.2748E+00  0.7595E+01
 -4.564  0.2276E+00  0.7597E+01
 -4.554  0.1851E+00  0.7599E+01
 -4.544  0.1654E+00  0.7601E+01
 -4.534  0.1767E+00  0.7602E+01
 -4.524  0.2143E+00  0.7604E+01
 -4.514  0.2623E+00  0.7607E+01
 -4.504  0.3000E+00  0.7610E+01
 -4.494  0.3115E+00  0.7613E+01
 -4.484  0.2933E+00  0.7616E+01
 -4.474  0.2570E+00  0.7619E+01
 -4.464  0.2254E+00  0.7621E+01
 -4.454  0.2227E+00  0.7623E+01
 -4.444  0.2642E+00  0.7626E+01
 -4.434  0.3490E+00  0.7629E+01
 -4.424  0.4570E+00  0.7634E+01
 -4.414  0.5544E+00  0.7639E+01
 -4.404  0.6066E+00  0.7646E+01
 -4.394  0.5930E+00  0.7651E+01
 -4.384  0.5173E+00  0.7657E+01
 -4.374  0.4042E+00  0.7661E+01
 -4.364  0.2880E+00  0.7664E+01
 -4.354  0.1984E+00  0.7666E+01
 -4.344  0.1520E+00  0.7667E+01
 -4.334  0.1508E+00  0.7669E+01
 -4.324  0.1853E+00  0.7670E+01
 -4.314  0.2372E+00  0.7673E+01
 -4.304  0.2844E+00  0.7676E+01
 -4.294  0.3074E+00  0.7679E+01
 -4.284  0.2963E+00  0.7682E+01
 -4.274  0.2546E+00  0.7684E+01
 -4.264  0.1970E+00  0.7686E+01
 -4.254  0.1425E+00  0.7688E+01
 -4.244  0.1072E+00  0.7689E+01
 -4.234  0.1009E+00  0.7690E+01
 -4.224  0.1251E+00  0.7691E+01
 -4.214  0.1735E+00  0.7693E+01
 -4.204  0.2321E+00  0.7695E+01
 -4.194  0.2823E+00  0.7698E+01
 -4.184  0.3067E+00  0.7701E+01
 -4.174  0.2962E+00  0.7704E+01
 -4.164  0.2544E+00  0.7706E+01
 -4.154  0.1955E+00  0.7708E+01
 -4.144  0.1379E+00  0.7710E+01
 -4.134  0.9718E-01  0.7711E+01
 -4.124  0.8303E-01  0.7712E+01
 -4.114  0.9876E-01  0.7713E+01
 -4.104  0.1421E+00  0.7714E+01
 -4.094  0.2052E+00  0.7716E+01
 -4.084  0.2756E+00  0.7719E+01
 -4.074  0.3391E+00  0.7722E+01
 -4.064  0.3858E+00  0.7726E+01
 -4.054  0.4130E+00  0.7730E+01
 -4.044  0.4241E+00  0.7734E+01
 -4.034  0.4227E+00  0.7739E+01
 -4.024  0.4094E+00  0.7743E+01
 -4.014  0.3835E+00  0.7747E+01
 -4.004  0.3482E+00  0.7750E+01
 -3.994  0.3137E+00  0.7753E+01
 -3.984  0.2929E+00  0.7756E+01
 -3.974  0.2928E+00  0.7759E+01
 -3.964  0.3081E+00  0.7762E+01
 -3.954  0.3230E+00  0.7765E+01
 -3.944  0.3200E+00  0.7769E+01
 -3.934  0.2898E+00  0.7771E+01
 -3.924  0.2362E+00  0.7774E+01
 -3.914  0.1726E+00  0.7776E+01
 -3.904  0.1145E+00  0.7777E+01
 -3.894  0.7375E-01  0.7777E+01
 -3.884  0.5630E-01  0.7778E+01
 -3.874  0.6408E-01  0.7779E+01
 -3.864  0.9625E-01  0.7780E+01
 -3.854  0.1485E+00  0.7781E+01
 -3.844  0.2109E+00  0.7783E+01
 -3.834  0.2679E+00  0.7786E+01
 -3.824  0.3024E+00  0.7789E+01
 -3.814  0.3029E+00  0.7792E+01
 -3.804  0.2691E+00  0.7795E+01
 -3.794  0.2123E+00  0.7797E+01
 -3.784  0.1492E+00  0.7798E+01
 -3.774  0.9506E-01  0.7799E+01
 -3.764  0.5927E-01  0.7800E+01
 -3.754  0.4561E-01  0.7800E+01
 -3.744  0.5508E-01  0.7801E+01
 -3.734  0.8772E-01  0.7802E+01
 -3.724  0.1418E+00  0.7803E+01
 -3.714  0.2118E+00  0.7805E+01
 -3.704  0.2871E+00  0.7808E+01
 -3.694  0.3554E+00  0.7812E+01
 -3.684  0.4066E+00  0.7816E+01
 -3.674  0.4370E+00  0.7820E+01
 -3.664  0.4468E+00  0.7824E+01
 -3.654  0.4372E+00  0.7829E+01
 -3.644  0.4079E+00  0.7833E+01
 -3.634  0.3593E+00  0.7837E+01
 -3.624  0.2979E+00  0.7839E+01
 -3.614  0.2370E+00  0.7842E+01
 -3.604  0.1932E+00  0.7844E+01
 -3.594  0.1792E+00  0.7846E+01
 -3.584  0.1975E+00  0.7848E+01
 -3.574  0.2381E+00  0.7850E+01
 -3.564  0.2817E+00  0.7853E+01
 -3.554  0.3075E+00  0.7856E+01
 -3.544  0.3018E+00  0.7859E+01
 -3.534  0.2639E+00  0.7861E+01
 -3.524  0.2051E+00  0.7864E+01
 -3.514  0.1417E+00  0.7865E+01
 -3.504  0.8757E-01  0.7866E+01
 -3.494  0.5033E-01  0.7866E+01
 -3.484  0.3176E-01  0.7867E+01
 -3.474  0.3135E-01  0.7867E+01
 -3.464  0.4906E-01  0.7867E+01
 -3.454  0.8544E-01  0.7868E+01
 -3.444  0.1389E+00  0.7870E+01
 -3.434  0.2021E+00  0.7872E+01
 -3.424  0.2612E+00  0.7874E+01
 -3.414  0.2997E+00  0.7877E+01
 -3.404  0.3049E+00  0.7880E+01
 -3.394  0.2752E+00  0.7883E+01
 -3.384  0.2208E+00  0.7885E+01
 -3.374  0.1585E+00  0.7887E+01
 -3.364  0.1050E+00  0.7888E+01
 -3.354  0.7187E-01  0.7889E+01
 -3.344  0.6560E-01  0.7889E+01
 -3.334  0.8961E-01  0.7890E+01
 -3.324  0.1453E+00  0.7892E+01
 -3.314  0.2302E+00  0.7894E+01
 -3.304  0.3347E+00  0.7897E+01
 -3.294  0.4405E+00  0.7902E+01
 -3.284  0.5241E+00  0.7907E+01
 -3.274  0.5639E+00  0.7913E+01
 -3.264  0.5489E+00  0.7918E+01
 -3.254  0.4832E+00  0.7923E+01
 -3.244  0.3844E+00  0.7927E+01
 -3.234  0.2759E+00  0.7930E+01
 -3.224  0.1784E+00  0.7931E+01
 -3.214  0.1039E+00  0.7932E+01
 -3.204  0.5502E-01  0.7933E+01
 -3.194  0.2843E-01  0.7933E+01
 -3.184  0.1929E-01  0.7933E+01
 -3.174  0.2481E-01  0.7934E+01
 -3.164  0.4528E-01  0.7934E+01
 -3.154  0.8241E-01  0.7935E+01
 -3.144  0.1358E+00  0.7936E+01
 -3.134  0.1990E+00  0.7938E+01
 -3.124  0.2588E+00  0.7941E+01
 -3.114  0.2985E+00  0.7944E+01
 -3.104  0.3054E+00  0.7947E+01
 -3.094  0.2771E+00  0.7950E+01
 -3.084  0.2230E+00  0.7952E+01
 -3.074  0.1592E+00  0.7954E+01
 -3.064  0.1012E+00  0.7955E+01
 -3.054  0.5822E-01  0.7955E+01
 -3.044  0.3371E-01  0.7955E+01
 -3.034  0.2878E-01  0.7956E+01
 -3.024  0.4749E-01  0.7956E+01
 -3.014  0.1003E+00  0.7957E+01
 -3.004  0.2027E+00  0.7959E+01
 -2.994  0.3678E+00  0.7963E+01
 -2.984  0.5932E+00  0.7969E+01
 -2.974  0.8486E+00  0.7977E+01
 -2.964  0.1077E+01  0.7988E+01
 -2.954  0.1212E+01  0.8000E+01
 -2.944  0.1209E+01  0.8012E+01
 -2.934  0.1070E+01  0.8023E+01
 -2.924  0.8401E+00  0.8031E+01
 -2.914  0.5849E+00  0.8037E+01
 -2.904  0.3613E+00  0.8041E+01
 -2.894  0.1984E+00  0.8043E+01
 -2.884  0.9800E-01  0.8044E+01
 -2.874  0.4694E-01  0.8044E+01
 -2.864  0.2982E-01  0.8045E+01
 -2.854  0.3658E-01  0.8045E+01
 -2.844  0.6329E-01  0.8046E+01
 -2.834  0.1085E+00  0.8047E+01
 -2.824  0.1680E+00  0.8048E+01
 -2.814  0.2315E+00  0.8051E+01
 -2.804  0.2829E+00  0.8054E+01
 -2.794  0.3066E+00  0.8057E+01
 -2.784  0.2948E+00  0.8060E+01
 -2.774  0.2513E+00  0.8062E+01
 -2.764  0.1901E+00  0.8064E+01
 -2.754  0.1276E+00  0.8065E+01
 -2.744  0.7649E-01  0.8066E+01
 -2.734  0.4219E-01  0.8066E+01
 -2.724  0.2501E-01  0.8067E+01
 -2.714  0.2378E-01  0.8067E+01
 -2.704  0.3922E-01  0.8067E+01
 -2.694  0.7471E-01  0.8068E+01
 -2.684  0.1344E+00  0.8069E+01
 -2.674  0.2190E+00  0.8072E+01
 -2.664  0.3217E+00  0.8075E+01
 -2.654  0.4267E+00  0.8079E+01
 -2.644  0.5119E+00  0.8084E+01
 -2.634  0.5565E+00  0.8090E+01
 -2.624  0.5485E+00  0.8095E+01
 -2.614  0.4903E+00  0.8100E+01
 -2.604  0.3972E+00  0.8104E+01
 -2.594  0.2920E+00  0.8107E+01
 -2.584  0.1967E+00  0.8109E+01
 -2.574  0.1268E+00  0.8110E+01
 -2.564  0.9018E-01  0.8111E+01
 -2.554  0.8793E-01  0.8112E+01
 -2.544  0.1167E+00  0.8113E+01
 -2.534  0.1682E+00  0.8115E+01
 -2.524  0.2288E+00  0.8117E+01
 -2.514  0.2805E+00  0.8120E+01
 -2.504  0.3062E+00  0.8123E+01
 -2.494  0.2968E+00  0.8126E+01
 -2.484  0.2552E+00  0.8129E+01
 -2.474  0.1949E+00  0.8130E+01
 -2.464  0.1328E+00  0.8132E+01
 -2.454  0.8277E-01  0.8133E+01
 -2.444  0.5216E-01  0.8133E+01
 -2.434  0.4352E-01  0.8134E+01
 -2.424  0.5723E-01  0.8134E+01
 -2.414  0.9262E-01  0.8135E+01
 -2.404  0.1463E+00  0.8137E+01
 -2.394  0.2094E+00  0.8139E+01
 -2.384  0.2670E+00  0.8141E+01
 -2.374  0.3023E+00  0.8144E+01
 -2.364  0.3043E+00  0.8147E+01
 -2.354  0.2734E+00  0.8150E+01
 -2.344  0.2226E+00  0.8152E+01
 -2.334  0.1724E+00  0.8154E+01
 -2.324  0.1432E+00  0.8156E+01
 -2.314  0.1494E+00  0.8157E+01
 -2.304  0.1965E+00  0.8159E+01
 -2.294  0.2795E+00  0.8162E+01
 -2.284  0.3827E+00  0.8166E+01
 -2.274  0.4818E+00  0.8170E+01
 -2.264  0.5504E+00  0.8176E+01
 -2.254  0.5687E+00  0.8182E+01
 -2.244  0.5310E+00  0.8187E+01
 -2.234  0.4478E+00  0.8191E+01
 -2.224  0.3415E+00  0.8195E+01
 -2.214  0.2369E+00  0.8197E+01
 -2.204  0.1539E+00  0.8199E+01
 -2.194  0.1038E+00  0.8200E+01
 -2.184  0.8977E-01  0.8201E+01
 -2.174  0.1094E+00  0.8202E+01
 -2.164  0.1554E+00  0.8203E+01
 -2.154  0.2148E+00  0.8205E+01
 -2.144  0.2702E+00  0.8208E+01
 -2.134  0.3034E+00  0.8211E+01
 -2.124  0.3029E+00  0.8214E+01
 -2.114  0.2694E+00  0.8217E+01
 -2.104  0.2157E+00  0.8219E+01
 -2.094  0.1607E+00  0.8221E+01
 -2.084  0.1228E+00  0.8222E+01
 -2.074  0.1135E+00  0.8223E+01
 -2.064  0.1355E+00  0.8224E+01
 -2.054  0.1824E+00  0.8226E+01
 -2.044  0.2393E+00  0.8229E+01
 -2.034  0.2870E+00  0.8231E+01
 -2.024  0.3083E+00  0.8235E+01
 -2.014  0.2958E+00  0.8238E+01
 -2.004  0.2557E+00  0.8240E+01
 -1.994  0.2055E+00  0.8242E+01
 -1.984  0.1665E+00  0.8244E+01
 -1.974  0.1567E+00  0.8245E+01
 -1.964  0.1850E+00  0.8247E+01
 -1.954  0.2495E+00  0.8250E+01
 -1.944  0.3379E+00  0.8253E+01
 -1.934  0.4307E+00  0.8257E+01
 -1.924  0.5064E+00  0.8262E+01
 -1.914  0.5484E+00  0.8268E+01
 -1.904  0.5503E+00  0.8273E+01
 -1.894  0.5187E+00  0.8279E+01
 -1.884  0.4702E+00  0.8283E+01
 -1.874  0.4241E+00  0.8288E+01
 -1.864  0.3933E+00  0.8291E+01
 -1.854  0.3776E+00  0.8295E+01
 -1.844  0.3660E+00  0.8299E+01
 -1.834  0.3456E+00  0.8302E+01
 -1.824  0.3118E+00  0.8306E+01
 -1.814  0.2726E+00  0.8308E+01
 -1.804  0.2435E+00  0.8311E+01
 -1.794  0.2378E+00  0.8313E+01
 -1.784  0.2571E+00  0.8316E+01
 -1.774  0.2902E+00  0.8319E+01
 -1.764  0.3188E+00  0.8322E+01
 -1.754  0.3286E+00  0.8325E+01
 -1.744  0.3179E+00  0.8328E+01
 -1.734  0.2982E+00  0.8331E+01
 -1.724  0.2857E+00  0.8334E+01
 -1.714  0.2911E+00  0.8337E+01
 -1.704  0.3119E+00  0.8340E+01
 -1.694  0.3356E+00  0.8343E+01
 -1.684  0.3492E+00  0.8347E+01
 -1.674  0.3483E+00  0.8350E+01
 -1.664  0.3403E+00  0.8354E+01
 -1.654  0.3369E+00  0.8357E+01
 -1.644  0.3449E+00  0.8361E+01
 -1.634  0.3614E+00  0.8364E+01
 -1.624  0.3773E+00  0.8368E+01
 -1.614  0.3861E+00  0.8372E+01
 -1.604  0.3894E+00  0.8376E+01
 -1.594  0.3946E+00  0.8380E+01
 -1.584  0.4088E+00  0.8384E+01
 -1.574  0.4346E+00  0.8388E+01
 -1.564  0.4719E+00  0.8393E+01
 -1.554  0.5216E+00  0.8398E+01
 -1.544  0.5852E+00  0.8404E+01
 -1.534  0.6596E+00  0.8410E+01
 -1.524  0.7329E+00  0.8418E+01
 -1.514  0.7874E+00  0.8426E+01
 -1.504  0.8092E+00  0.8434E+01
 -1.494  0.7963E+00  0.8442E+01
 -1.484  0.7594E+00  0.8449E+01
 -1.474  0.7154E+00  0.8457E+01
 -1.464  0.6792E+00  0.8463E+01
 -1.454  0.6595E+00  0.8470E+01
 -1.444  0.6578E+00  0.8476E+01
 -1.434  0.6715E+00  0.8483E+01
 -1.424  0.6969E+00  0.8490E+01
 -1.414  0.7307E+00  0.8497E+01
 -1.404  0.7717E+00  0.8505E+01
 -1.394  0.8199E+00  0.8513E+01
 -1.384  0.8770E+00  0.8522E+01
 -1.374  0.9457E+00  0.8532E+01
 -1.364  0.1031E+01  0.8542E+01
 -1.354  0.1141E+01  0.8553E+01
 -1.344  0.1286E+01  0.8566E+01
 -1.334  0.1478E+01  0.8581E+01
 -1.324  0.1726E+01  0.8598E+01
 -1.314  0.2024E+01  0.8618E+01
 -1.304  0.2337E+01  0.8642E+01
 -1.294  0.2602E+01  0.8668E+01
 -1.284  0.2742E+01  0.8695E+01
 -1.274  0.2693E+01  0.8722E+01
 -1.264  0.2444E+01  0.8747E+01
 -1.254  0.2045E+01  0.8767E+01
 -1.244  0.1589E+01  0.8783E+01
 -1.234  0.1168E+01  0.8795E+01
 -1.224  0.8380E+00  0.8803E+01
 -1.214  0.6044E+00  0.8809E+01
 -1.204  0.4432E+00  0.8814E+01
 -1.194  0.3249E+00  0.8817E+01
 -1.184  0.2316E+00  0.8819E+01
 -1.174  0.1601E+00  0.8821E+01
 -1.164  0.1151E+00  0.8822E+01
 -1.154  0.1016E+00  0.8823E+01
 -1.144  0.1208E+00  0.8824E+01
 -1.134  0.1674E+00  0.8826E+01
 -1.124  0.2303E+00  0.8828E+01
 -1.114  0.2942E+00  0.8831E+01
 -1.104  0.3453E+00  0.8834E+01
 -1.094  0.3765E+00  0.8838E+01
 -1.084  0.3905E+00  0.8842E+01
 -1.074  0.3941E+00  0.8846E+01
 -1.064  0.3917E+00  0.8850E+01
 -1.054  0.3803E+00  0.8854E+01
 -1.044  0.3526E+00  0.8857E+01
 -1.034  0.3044E+00  0.8860E+01
 -1.024  0.2401E+00  0.8863E+01
 -1.014  0.1707E+00  0.8864E+01
 -1.004  0.1086E+00  0.8866E+01
 -0.994  0.6155E-01  0.8866E+01
 -0.984  0.3102E-01  0.8866E+01
 -0.974  0.1388E-01  0.8867E+01
 -0.964  0.5515E-02  0.8867E+01
 -0.954  0.1944E-02  0.8867E+01
 -0.944  0.6080E-03  0.8867E+01
 -0.934  0.1705E-03  0.8867E+01
 -0.924  0.5166E-04  0.8867E+01
 -0.914  0.5549E-04  0.8867E+01
 -0.904  0.1888E-03  0.8867E+01
 -0.894  0.6687E-03  0.8867E+01
 -0.884  0.2118E-02  0.8867E+01
 -0.874  0.5950E-02  0.8867E+01
 -0.864  0.1483E-01  0.8867E+01
 -0.854  0.3277E-01  0.8867E+01
 -0.844  0.6423E-01  0.8868E+01
 -0.834  0.1117E+00  0.8869E+01
 -0.824  0.1721E+00  0.8871E+01
 -0.814  0.2354E+00  0.8873E+01
 -0.804  0.2854E+00  0.8876E+01
 -0.794  0.3070E+00  0.8879E+01
 -0.784  0.2931E+00  0.8882E+01
 -0.774  0.2486E+00  0.8884E+01
 -0.764  0.1887E+00  0.8886E+01
 -0.754  0.1315E+00  0.8888E+01
 -0.744  0.9182E-01  0.8889E+01
 -0.734  0.7847E-01  0.8889E+01
 -0.724  0.9400E-01  0.8890E+01
 -0.714  0.1354E+00  0.8892E+01
 -0.704  0.1934E+00  0.8894E+01
 -0.694  0.2528E+00  0.8896E+01
 -0.684  0.2953E+00  0.8899E+01
 -0.674  0.3066E+00  0.8902E+01
 -0.664  0.2825E+00  0.8905E+01
 -0.654  0.2308E+00  0.8907E+01
 -0.644  0.1672E+00  0.8909E+01
 -0.634  0.1075E+00  0.8910E+01
 -0.624  0.6127E-01  0.8911E+01
 -0.614  0.3098E-01  0.8911E+01
 -0.604  0.1390E-01  0.8911E+01
 -0.594  0.5562E-02  0.8911E+01
 -0.584  0.2112E-02  0.8911E+01
 -0.574  0.1206E-02  0.8911E+01
 -0.564  0.2081E-02  0.8911E+01
 -0.554  0.5475E-02  0.8911E+01
 -0.544  0.1370E-01  0.8911E+01
 -0.534  0.3060E-01  0.8912E+01
 -0.524  0.6065E-01  0.8912E+01
 -0.514  0.1066E+00  0.8913E+01
 -0.504  0.1662E+00  0.8915E+01
 -0.494  0.2298E+00  0.8917E+01
 -0.484  0.2818E+00  0.8920E+01
 -0.474  0.3064E+00  0.8923E+01
 -0.464  0.2956E+00  0.8926E+01
 -0.454  0.2528E+00  0.8929E+01
 -0.444  0.1918E+00  0.8931E+01
 -0.434  0.1290E+00  0.8932E+01
 -0.424  0.7700E-01  0.8933E+01
 -0.414  0.4075E-01  0.8933E+01
 -0.404  0.1913E-01  0.8933E+01
 -0.394  0.7961E-02  0.8933E+01
 -0.384  0.2939E-02  0.8933E+01
 -0.374  0.9651E-03  0.8933E+01
 -0.364  0.2938E-03  0.8933E+01
 -0.354  0.1355E-03  0.8933E+01
 -0.344  0.2660E-03  0.8933E+01
 -0.334  0.8717E-03  0.8933E+01
 -0.324  0.2681E-02  0.8933E+01
 -0.314  0.7336E-02  0.8933E+01
 -0.304  0.1781E-01  0.8934E+01
 -0.294  0.3834E-01  0.8934E+01
 -0.284  0.7321E-01  0.8935E+01
 -0.274  0.1240E+00  0.8936E+01
 -0.264  0.1862E+00  0.8938E+01
 -0.254  0.2480E+00  0.8940E+01
 -0.244  0.2930E+00  0.8943E+01
 -0.234  0.3069E+00  0.8946E+01
 -0.224  0.2852E+00  0.8949E+01
 -0.214  0.2352E+00  0.8952E+01
 -0.204  0.1723E+00  0.8953E+01
 -0.194  0.1130E+00  0.8954E+01
 -0.184  0.6884E-01  0.8955E+01
 -0.174  0.4501E-01  0.8956E+01
 -0.164  0.4282E-01  0.8956E+01
 -0.154  0.6231E-01  0.8957E+01
 -0.144  0.1026E+00  0.8958E+01
 -0.134  0.1595E+00  0.8959E+01
 -0.124  0.2229E+00  0.8961E+01
 -0.114  0.2770E+00  0.8964E+01
 -0.104  0.3054E+00  0.8967E+01
 -0.094  0.2986E+00  0.8970E+01
 -0.084  0.2590E+00  0.8973E+01
 -0.074  0.1992E+00  0.8975E+01
 -0.064  0.1359E+00  0.8976E+01
 -0.054  0.8222E-01  0.8977E+01
 -0.044  0.4412E-01  0.8977E+01
 -0.034  0.2099E-01  0.8978E+01
 -0.024  0.8860E-02  0.8978E+01
 -0.014  0.3316E-02  0.8978E+01
 -0.004  0.1101E-02  0.8978E+01
  0.006  0.3241E-03  0.8978E+01
  0.016  0.8463E-04  0.8978E+01
  0.026  0.1960E-04  0.8978E+01
  0.036  0.4025E-05  0.8978E+01
  0.046  0.7364E-06  0.8978E+01
  0.056  0.1439E-06  0.8978E+01
  0.066  0.1905E-06  0.8978E+01
  0.076  0.1050E-05  0.8978E+01
  0.086  0.5616E-05  0.8978E+01
  0.096  0.2668E-04  0.8978E+01
  0.106  0.1124E-03  0.8978E+01
  0.116  0.4202E-03  0.8978E+01
  0.126  0.1393E-02  0.8978E+01
  0.136  0.4093E-02  0.8978E+01
  0.146  0.1067E-01  0.8978E+01
  0.156  0.2467E-01  0.8978E+01
  0.166  0.5060E-01  0.8979E+01
  0.176  0.9203E-01  0.8980E+01
  0.186  0.1485E+00  0.8981E+01
  0.196  0.2129E+00  0.8983E+01
  0.206  0.2716E+00  0.8986E+01
  0.216  0.3104E+00  0.8989E+01
  0.226  0.3238E+00  0.8992E+01
  0.236  0.3226E+00  0.8996E+01
  0.246  0.3355E+00  0.8999E+01
  0.256  0.4010E+00  0.9003E+01
  0.266  0.5518E+00  0.9008E+01
  0.276  0.7964E+00  0.9016E+01
  0.286  0.1107E+01  0.9027E+01
  0.296  0.1422E+01  0.9042E+01
  0.306  0.1668E+01  0.9058E+01
  0.316  0.1788E+01  0.9076E+01
  0.326  0.1767E+01  0.9094E+01
  0.336  0.1634E+01  0.9110E+01
  0.346  0.1438E+01  0.9125E+01
  0.356  0.1232E+01  0.9137E+01
  0.366  0.1052E+01  0.9147E+01
  0.376  0.9144E+00  0.9157E+01
  0.386  0.8194E+00  0.9165E+01
  0.396  0.7578E+00  0.9172E+01
  0.406  0.7159E+00  0.9180E+01
  0.416  0.6818E+00  0.9186E+01
  0.426  0.6482E+00  0.9193E+01
  0.436  0.6126E+00  0.9199E+01
  0.446  0.5755E+00  0.9205E+01
  0.456  0.5388E+00  0.9210E+01
  0.466  0.5064E+00  0.9215E+01
  0.476  0.4843E+00  0.9220E+01
  0.486  0.4780E+00  0.9225E+01
  0.496  0.4885E+00  0.9230E+01
  0.506  0.5095E+00  0.9235E+01
  0.516  0.5289E+00  0.9240E+01
  0.526  0.5334E+00  0.9245E+01
  0.536  0.5134E+00  0.9251E+01
  0.546  0.4671E+00  0.9255E+01
  0.556  0.4020E+00  0.9259E+01
  0.566  0.3342E+00  0.9263E+01
  0.576  0.2844E+00  0.9265E+01
  0.586  0.2707E+00  0.9268E+01
  0.596  0.3012E+00  0.9271E+01
  0.606  0.3702E+00  0.9275E+01
  0.616  0.4595E+00  0.9279E+01
  0.626  0.5457E+00  0.9285E+01
  0.636  0.6086E+00  0.9291E+01
  0.646  0.6385E+00  0.9297E+01
  0.656  0.6372E+00  0.9304E+01
  0.666  0.6142E+00  0.9310E+01
  0.676  0.5811E+00  0.9316E+01
  0.686  0.5482E+00  0.9321E+01
  0.696  0.5250E+00  0.9326E+01
  0.706  0.5219E+00  0.9332E+01
  0.716  0.5484E+00  0.9337E+01
  0.726  0.6072E+00  0.9343E+01
  0.736  0.6887E+00  0.9350E+01
  0.746  0.7702E+00  0.9358E+01
  0.756  0.8221E+00  0.9366E+01
  0.766  0.8191E+00  0.9374E+01
  0.776  0.7512E+00  0.9382E+01
  0.786  0.6283E+00  0.9388E+01
  0.796  0.4763E+00  0.9393E+01
  0.806  0.3256E+00  0.9396E+01
  0.816  0.2005E+00  0.9398E+01
  0.826  0.1119E+00  0.9399E+01
  0.836  0.5987E-01  0.9400E+01
  0.846  0.3906E-01  0.9400E+01
  0.856  0.4547E-01  0.9401E+01
  0.866  0.7945E-01  0.9401E+01
  0.876  0.1441E+00  0.9403E+01
  0.886  0.2398E+00  0.9405E+01
  0.896  0.3576E+00  0.9409E+01
  0.906  0.4760E+00  0.9414E+01
  0.916  0.5654E+00  0.9419E+01
  0.926  0.5991E+00  0.9425E+01
  0.936  0.5665E+00  0.9431E+01
  0.946  0.4780E+00  0.9436E+01
  0.956  0.3601E+00  0.9439E+01
  0.966  0.2433E+00  0.9442E+01
  0.976  0.1507E+00  0.9443E+01
  0.986  0.9527E-01  0.9444E+01
  0.996  0.8370E-01  0.9445E+01
  1.006  0.1241E+00  0.9446E+01
  1.016  0.2298E+00  0.9448E+01
  1.026  0.4151E+00  0.9453E+01
  1.036  0.6841E+00  0.9459E+01
  1.046  0.1017E+01  0.9470E+01
  1.056  0.1367E+01  0.9483E+01
  1.066  0.1669E+01  0.9500E+01
  1.076  0.1870E+01  0.9519E+01
  1.086  0.1944E+01  0.9538E+01
  1.096  0.1903E+01  0.9557E+01
  1.106  0.1786E+01  0.9575E+01
  1.116  0.1638E+01  0.9591E+01
  1.126  0.1496E+01  0.9606E+01
  1.136  0.1388E+01  0.9620E+01
  1.146  0.1325E+01  0.9634E+01
  1.156  0.1304E+01  0.9647E+01
  1.166  0.1303E+01  0.9660E+01
  1.176  0.1297E+01  0.9673E+01
  1.186  0.1263E+01  0.9685E+01
  1.196  0.1200E+01  0.9697E+01
  1.206  0.1130E+01  0.9708E+01
  1.216  0.1095E+01  0.9719E+01
  1.226  0.1137E+01  0.9731E+01
  1.236  0.1284E+01  0.9744E+01
  1.246  0.1529E+01  0.9759E+01
  1.256  0.1823E+01  0.9777E+01
  1.266  0.2092E+01  0.9798E+01
  1.276  0.2269E+01  0.9821E+01
  1.286  0.2316E+01  0.9844E+01
  1.296  0.2243E+01  0.9866E+01
  1.306  0.2088E+01  0.9887E+01
  1.316  0.1895E+01  0.9906E+01
  1.326  0.1702E+01  0.9923E+01
  1.336  0.1531E+01  0.9939E+01
  1.346  0.1397E+01  0.9952E+01
  1.356  0.1306E+01  0.9966E+01
  1.366  0.1259E+01  0.9978E+01
  1.376  0.1244E+01  0.9991E+01
  1.386  0.1243E+01  0.1000E+02
  1.396  0.1235E+01  0.1002E+02
  1.406  0.1205E+01  0.1003E+02
  1.416  0.1150E+01  0.1004E+02
  1.426  0.1079E+01  0.1005E+02
  1.436  0.1006E+01  0.1006E+02
  1.446  0.9469E+00  0.1007E+02
  1.456  0.9087E+00  0.1008E+02
  1.466  0.8904E+00  0.1009E+02
  1.476  0.8877E+00  0.1010E+02
  1.486  0.8993E+00  0.1011E+02
  1.496  0.9266E+00  0.1011E+02
  1.506  0.9674E+00  0.1012E+02
  1.516  0.1011E+01  0.1013E+02
  1.526  0.1042E+01  0.1014E+02
  1.536  0.1051E+01  0.1016E+02
  1.546  0.1051E+01  0.1017E+02
  1.556  0.1073E+01  0.1018E+02
  1.566  0.1156E+01  0.1019E+02
  1.576  0.1325E+01  0.1020E+02
  1.586  0.1573E+01  0.1022E+02
  1.596  0.1859E+01  0.1024E+02
  1.606  0.2129E+01  0.1026E+02
  1.616  0.2336E+01  0.1028E+02
  1.626  0.2460E+01  0.1030E+02
  1.636  0.2513E+01  0.1033E+02
  1.646  0.2523E+01  0.1036E+02
  1.656  0.2509E+01  0.1038E+02
  1.666  0.2474E+01  0.1040E+02
  1.676  0.2403E+01  0.1043E+02
  1.686  0.2286E+01  0.1045E+02
  1.696  0.2128E+01  0.1047E+02
  1.706  0.1949E+01  0.1049E+02
  1.716  0.1776E+01  0.1051E+02
  1.726  0.1629E+01  0.1053E+02
  1.736  0.1506E+01  0.1054E+02
  1.746  0.1393E+01  0.1056E+02
  1.756  0.1282E+01  0.1057E+02
  1.766  0.1182E+01  0.1058E+02
  1.776  0.1130E+01  0.1059E+02
  1.786  0.1173E+01  0.1060E+02
  1.796  0.1343E+01  0.1062E+02
  1.806  0.1637E+01  0.1063E+02
  1.816  0.2002E+01  0.1065E+02
  1.826  0.2358E+01  0.1068E+02
  1.836  0.2626E+01  0.1070E+02
  1.846  0.2761E+01  0.1073E+02
  1.856  0.2764E+01  0.1076E+02
  1.866  0.2677E+01  0.1078E+02
  1.876  0.2558E+01  0.1081E+02
  1.886  0.2452E+01  0.1084E+02
  1.896  0.2374E+01  0.1086E+02
  1.906  0.2309E+01  0.1088E+02
  1.916  0.2228E+01  0.1090E+02
  1.926  0.2106E+01  0.1093E+02
  1.936  0.1937E+01  0.1094E+02
  1.946  0.1733E+01  0.1096E+02
  1.956  0.1511E+01  0.1098E+02
  1.966  0.1293E+01  0.1099E+02
  1.976  0.1096E+01  0.1100E+02
  1.986  0.9406E+00  0.1101E+02
  1.996  0.8448E+00  0.1102E+02
  2.006  0.8229E+00  0.1103E+02
  2.016  0.8765E+00  0.1104E+02
  2.026  0.9927E+00  0.1105E+02
  2.036  0.1148E+01  0.1106E+02
  2.046  0.1318E+01  0.1107E+02
  2.056  0.1481E+01  0.1109E+02
  2.066  0.1621E+01  0.1110E+02
  2.076  0.1728E+01  0.1112E+02
  2.086  0.1798E+01  0.1114E+02
  2.096  0.1834E+01  0.1115E+02
  2.106  0.1849E+01  0.1117E+02
  2.116  0.1856E+01  0.1119E+02
  2.126  0.1863E+01  0.1121E+02
  2.136  0.1867E+01  0.1123E+02
  2.146  0.1854E+01  0.1125E+02
  2.156  0.1802E+01  0.1127E+02
  2.166  0.1697E+01  0.1128E+02
  2.176  0.1541E+01  0.1130E+02
  2.186  0.1359E+01  0.1131E+02
  2.196  0.1200E+01  0.1132E+02
  2.206  0.1109E+01  0.1133E+02
  2.216  0.1111E+01  0.1135E+02
  2.226  0.1187E+01  0.1136E+02
  2.236  0.1288E+01  0.1137E+02
  2.246  0.1357E+01  0.1138E+02
  2.256  0.1360E+01  0.1140E+02
  2.266  0.1302E+01  0.1141E+02
  2.276  0.1214E+01  0.1142E+02
  2.286  0.1128E+01  0.1143E+02
  2.296  0.1061E+01  0.1144E+02
  2.306  0.1008E+01  0.1146E+02
  2.316  0.9591E+00  0.1146E+02
  2.326  0.9054E+00  0.1147E+02
  2.336  0.8438E+00  0.1148E+02
  2.346  0.7761E+00  0.1149E+02
  2.356  0.7077E+00  0.1150E+02
  2.366  0.6480E+00  0.1150E+02
  2.376  0.6113E+00  0.1151E+02
  2.386  0.6160E+00  0.1152E+02
  2.396  0.6836E+00  0.1152E+02
  2.406  0.8347E+00  0.1153E+02
  2.416  0.1081E+01  0.1154E+02
  2.426  0.1409E+01  0.1156E+02
  2.436  0.1769E+01  0.1157E+02
  2.446  0.2077E+01  0.1159E+02
  2.456  0.2252E+01  0.1162E+02
  2.466  0.2254E+01  0.1164E+02
  2.476  0.2113E+01  0.1166E+02
  2.486  0.1917E+01  0.1168E+02
  2.496  0.1755E+01  0.1170E+02
  2.506  0.1675E+01  0.1171E+02
  2.516  0.1669E+01  0.1173E+02
  2.526  0.1695E+01  0.1175E+02
  2.536  0.1721E+01  0.1176E+02
  2.546  0.1736E+01  0.1178E+02
  2.556  0.1759E+01  0.1180E+02
  2.566  0.1807E+01  0.1182E+02
  2.576  0.1885E+01  0.1184E+02
  2.586  0.1980E+01  0.1186E+02
  2.596  0.2069E+01  0.1188E+02
  2.606  0.2129E+01  0.1190E+02
  2.616  0.2150E+01  0.1192E+02
  2.626  0.2140E+01  0.1194E+02
  2.636  0.2119E+01  0.1196E+02
  2.646  0.2107E+01  0.1198E+02
  2.656  0.2107E+01  0.1200E+02
  2.666  0.2097E+01  0.1203E+02
  2.676  0.2046E+01  0.1205E+02
  2.686  0.1933E+01  0.1207E+02
  2.696  0.1763E+01  0.1208E+02
  2.706  0.1567E+01  0.1210E+02
  2.716  0.1386E+01  0.1211E+02
  2.726  0.1251E+01  0.1213E+02
  2.736  0.1173E+01  0.1214E+02
  2.746  0.1152E+01  0.1215E+02
  2.756  0.1182E+01  0.1216E+02
  2.766  0.1268E+01  0.1217E+02
  2.776  0.1417E+01  0.1219E+02
  2.786  0.1632E+01  0.1220E+02
  2.796  0.1899E+01  0.1222E+02
  2.806  0.2185E+01  0.1224E+02
  2.816  0.2446E+01  0.1227E+02
  2.826  0.2645E+01  0.1230E+02
  2.836  0.2755E+01  0.1232E+02
  2.846  0.2770E+01  0.1235E+02
  2.856  0.2699E+01  0.1238E+02
  2.866  0.2563E+01  0.1240E+02
  2.876  0.2396E+01  0.1243E+02
  2.886  0.2236E+01  0.1245E+02
  2.896  0.2115E+01  0.1247E+02
  2.906  0.2044E+01  0.1249E+02
  2.916  0.2010E+01  0.1251E+02
  2.926  0.1985E+01  0.1253E+02
  2.936  0.1944E+01  0.1255E+02
  2.946  0.1886E+01  0.1257E+02
  2.956  0.1827E+01  0.1259E+02
  2.966  0.1787E+01  0.1261E+02
  2.976  0.1774E+01  0.1262E+02
  2.986  0.1775E+01  0.1264E+02
  2.996  0.1768E+01  0.1266E+02
  3.006  0.1734E+01  0.1268E+02
  3.016  0.1669E+01  0.1269E+02
  3.026  0.1584E+01  0.1271E+02
  3.036  0.1498E+01  0.1272E+02
  3.046  0.1421E+01  0.1274E+02
  3.056  0.1349E+01  0.1275E+02
  3.066  0.1269E+01  0.1276E+02
  3.076  0.1173E+01  0.1278E+02
  3.086  0.1078E+01  0.1279E+02
  3.096  0.1022E+01  0.1280E+02
  3.106  0.1054E+01  0.1281E+02
  3.116  0.1201E+01  0.1282E+02
  3.126  0.1455E+01  0.1283E+02
  3.136  0.1767E+01  0.1285E+02
  3.146  0.2073E+01  0.1287E+02
  3.156  0.2310E+01  0.1290E+02
  3.166  0.2437E+01  0.1292E+02
  3.176  0.2446E+01  0.1294E+02
  3.186  0.2351E+01  0.1297E+02
  3.196  0.2190E+01  0.1299E+02
  3.206  0.2002E+01  0.1301E+02
  3.216  0.1826E+01  0.1303E+02
  3.226  0.1680E+01  0.1304E+02
  3.236  0.1567E+01  0.1306E+02
  3.246  0.1478E+01  0.1307E+02
  3.256  0.1409E+01  0.1309E+02
  3.266  0.1357E+01  0.1310E+02
  3.276  0.1321E+01  0.1312E+02
  3.286  0.1289E+01  0.1313E+02
  3.296  0.1242E+01  0.1314E+02
  3.306  0.1164E+01  0.1315E+02
  3.316  0.1053E+01  0.1316E+02
  3.326  0.9239E+00  0.1317E+02
  3.336  0.8048E+00  0.1318E+02
  3.346  0.7217E+00  0.1319E+02
  3.356  0.6917E+00  0.1319E+02
  3.366  0.7202E+00  0.1320E+02
  3.376  0.7998E+00  0.1321E+02
  3.386  0.9102E+00  0.1322E+02
  3.396  0.1023E+01  0.1323E+02
  3.406  0.1116E+01  0.1324E+02
  3.416  0.1184E+01  0.1325E+02
  3.426  0.1248E+01  0.1326E+02
  3.436  0.1339E+01  0.1328E+02
  3.446  0.1483E+01  0.1329E+02
  3.456  0.1671E+01  0.1331E+02
  3.466  0.1863E+01  0.1333E+02
  3.476  0.1997E+01  0.1335E+02
  3.486  0.2019E+01  0.1337E+02
  3.496  0.1909E+01  0.1339E+02
  3.506  0.1694E+01  0.1340E+02
  3.516  0.1436E+01  0.1342E+02
  3.526  0.1205E+01  0.1343E+02
  3.536  0.1050E+01  0.1344E+02
  3.546  0.9858E+00  0.1345E+02
  3.556  0.9935E+00  0.1346E+02
  3.566  0.1035E+01  0.1347E+02
  3.576  0.1069E+01  0.1348E+02
  3.586  0.1067E+01  0.1349E+02
  3.596  0.1020E+01  0.1350E+02
  3.606  0.9362E+00  0.1351E+02
  3.616  0.8370E+00  0.1352E+02
  3.626  0.7460E+00  0.1353E+02
  3.636  0.6849E+00  0.1353E+02
  3.646  0.6701E+00  0.1354E+02
  3.656  0.7121E+00  0.1355E+02
  3.666  0.8152E+00  0.1356E+02
  3.676  0.9737E+00  0.1357E+02
  3.686  0.1167E+01  0.1358E+02
  3.696  0.1358E+01  0.1359E+02
  3.706  0.1507E+01  0.1361E+02
  3.716  0.1582E+01  0.1362E+02
  3.726  0.1576E+01  0.1364E+02
  3.736  0.1511E+01  0.1365E+02
  3.746  0.1432E+01  0.1367E+02
  3.756  0.1390E+01  0.1368E+02
  3.766  0.1430E+01  0.1370E+02
  3.776  0.1574E+01  0.1371E+02
  3.786  0.1811E+01  0.1373E+02
  3.796  0.2103E+01  0.1375E+02
  3.806  0.2391E+01  0.1378E+02
  3.816  0.2616E+01  0.1380E+02
  3.826  0.2733E+01  0.1383E+02
  3.836  0.2724E+01  0.1386E+02
  3.846  0.2607E+01  0.1388E+02
  3.856  0.2421E+01  0.1391E+02
  3.866  0.2217E+01  0.1393E+02
  3.876  0.2033E+01  0.1395E+02
  3.886  0.1885E+01  0.1397E+02
  3.896  0.1770E+01  0.1399E+02
  3.906  0.1677E+01  0.1400E+02
  3.916  0.1593E+01  0.1402E+02
  3.926  0.1517E+01  0.1403E+02
  3.936  0.1454E+01  0.1405E+02
  3.946  0.1417E+01  0.1406E+02
  3.956  0.1413E+01  0.1408E+02
  3.966  0.1436E+01  0.1409E+02
  3.976  0.1475E+01  0.1410E+02
  3.986  0.1514E+01  0.1412E+02
  3.996  0.1541E+01  0.1414E+02
  4.006  0.1552E+01  0.1415E+02
  4.016  0.1542E+01  0.1417E+02
  4.026  0.1507E+01  0.1418E+02
  4.036  0.1451E+01  0.1420E+02
  4.046  0.1387E+01  0.1421E+02
  4.056  0.1346E+01  0.1422E+02
  4.066  0.1359E+01  0.1424E+02
  4.076  0.1444E+01  0.1425E+02
  4.086  0.1595E+01  0.1427E+02
  4.096  0.1780E+01  0.1429E+02
  4.106  0.1953E+01  0.1430E+02
  4.116  0.2080E+01  0.1433E+02
  4.126  0.2142E+01  0.1435E+02
  4.136  0.2151E+01  0.1437E+02
  4.146  0.2130E+01  0.1439E+02
  4.156  0.2117E+01  0.1441E+02
  4.166  0.2144E+01  0.1443E+02
  4.176  0.2241E+01  0.1445E+02
  4.186  0.2414E+01  0.1448E+02
  4.196  0.2640E+01  0.1451E+02
  4.206  0.2853E+01  0.1453E+02
  4.216  0.2971E+01  0.1456E+02
  4.226  0.2931E+01  0.1459E+02
  4.236  0.2724E+01  0.1462E+02
  4.246  0.2404E+01  0.1464E+02
  4.256  0.2065E+01  0.1466E+02
  4.266  0.1790E+01  0.1468E+02
  4.276  0.1628E+01  0.1470E+02
  4.286  0.1572E+01  0.1471E+02
  4.296  0.1584E+01  0.1473E+02
  4.306  0.1614E+01  0.1475E+02
  4.316  0.1631E+01  0.1476E+02
  4.326  0.1633E+01  0.1478E+02
  4.336  0.1639E+01  0.1480E+02
  4.346  0.1674E+01  0.1481E+02
  4.356  0.1752E+01  0.1483E+02
  4.366  0.1868E+01  0.1485E+02
  4.376  0.1998E+01  0.1487E+02
  4.386  0.2115E+01  0.1489E+02
  4.396  0.2205E+01  0.1491E+02
  4.406  0.2279E+01  0.1493E+02
  4.416  0.2365E+01  0.1496E+02
  4.426  0.2484E+01  0.1498E+02
  4.436  0.2628E+01  0.1501E+02
  4.446  0.2760E+01  0.1504E+02
  4.456  0.2840E+01  0.1507E+02
  4.466  0.2854E+01  0.1509E+02
  4.476  0.2827E+01  0.1512E+02
  4.486  0.2803E+01  0.1515E+02
  4.496  0.2811E+01  0.1518E+02
  4.506  0.2850E+01  0.1521E+02
  4.516  0.2890E+01  0.1524E+02
  4.526  0.2896E+01  0.1526E+02
  4.536  0.2847E+01  0.1529E+02
  4.546  0.2745E+01  0.1532E+02
  4.556  0.2611E+01  0.1535E+02
  4.566  0.2479E+01  0.1537E+02
  4.576  0.2388E+01  0.1540E+02
  4.586  0.2364E+01  0.1542E+02
  4.596  0.2405E+01  0.1544E+02
  4.606  0.2480E+01  0.1547E+02
  4.616  0.2538E+01  0.1549E+02
  4.626  0.2538E+01  0.1552E+02
  4.636  0.2466E+01  0.1554E+02
  4.646  0.2339E+01  0.1557E+02
  4.656  0.2192E+01  0.1559E+02
  4.666  0.2063E+01  0.1561E+02
  4.676  0.1980E+01  0.1563E+02
  4.686  0.1960E+01  0.1565E+02
  4.696  0.1996E+01  0.1567E+02
  4.706  0.2062E+01  0.1569E+02
  4.716  0.2119E+01  0.1571E+02
  4.726  0.2136E+01  0.1573E+02
  4.736  0.2113E+01  0.1575E+02
  4.746  0.2080E+01  0.1577E+02
  4.756  0.2082E+01  0.1579E+02
  4.766  0.2140E+01  0.1582E+02
  4.776  0.2241E+01  0.1584E+02
  4.786  0.2339E+01  0.1586E+02
  4.796  0.2386E+01  0.1589E+02
  4.806  0.2357E+01  0.1591E+02
  4.816  0.2260E+01  0.1593E+02
  4.826  0.2126E+01  0.1595E+02
  4.836  0.1990E+01  0.1597E+02
  4.846  0.1872E+01  0.1599E+02
  4.856  0.1771E+01  0.1601E+02
  4.866  0.1671E+01  0.1603E+02
  4.876  0.1552E+01  0.1604E+02
  4.886  0.1405E+01  0.1606E+02
  4.896  0.1242E+01  0.1607E+02
  4.906  0.1101E+01  0.1608E+02
  4.916  0.1033E+01  0.1609E+02
  4.926  0.1079E+01  0.1610E+02
  4.936  0.1253E+01  0.1611E+02
  4.946  0.1534E+01  0.1613E+02
  4.956  0.1877E+01  0.1615E+02
  4.966  0.2226E+01  0.1617E+02
  4.976  0.2539E+01  0.1619E+02
  4.986  0.2788E+01  0.1622E+02
  4.996  0.2960E+01  0.1625E+02
  5.006  0.3041E+01  0.1628E+02
  5.016  0.3010E+01  0.1631E+02
  5.026  0.2851E+01  0.1634E+02
  5.036  0.2569E+01  0.1637E+02
  5.046  0.2196E+01  0.1639E+02
  5.056  0.1786E+01  0.1641E+02
  5.066  0.1397E+01  0.1642E+02
  5.076  0.1077E+01  0.1643E+02
  5.086  0.8618E+00  0.1644E+02
  5.096  0.7736E+00  0.1645E+02
  5.106  0.8197E+00  0.1646E+02
  5.116  0.9876E+00  0.1647E+02
  5.126  0.1243E+01  0.1648E+02
  5.136  0.1534E+01  0.1649E+02
  5.146  0.1803E+01  0.1651E+02
  5.156  0.2006E+01  0.1653E+02
  5.166  0.2124E+01  0.1655E+02
  5.176  0.2170E+01  0.1657E+02
  5.186  0.2175E+01  0.1660E+02
  5.196  0.2165E+01  0.1662E+02
  5.206  0.2149E+01  0.1664E+02
  5.216  0.2112E+01  0.1666E+02
  5.226  0.2036E+01  0.1668E+02
  5.236  0.1909E+01  0.1670E+02
  5.246  0.1738E+01  0.1672E+02
  5.256  0.1536E+01  0.1673E+02
  5.266  0.1323E+01  0.1675E+02
  5.276  0.1124E+01  0.1676E+02
  5.286  0.9817E+00  0.1677E+02
  5.296  0.9583E+00  0.1678E+02
  5.306  0.1131E+01  0.1679E+02
  5.316  0.1566E+01  0.1680E+02
  5.326  0.2281E+01  0.1683E+02
  5.336  0.3218E+01  0.1686E+02
  5.346  0.4236E+01  0.1690E+02
  5.356  0.5143E+01  0.1695E+02
  5.366  0.5765E+01  0.1701E+02
  5.376  0.6005E+01  0.1707E+02
  5.386  0.5885E+01  0.1713E+02
  5.396  0.5518E+01  0.1718E+02
  5.406  0.5058E+01  0.1723E+02
  5.416  0.4627E+01  0.1728E+02
  5.426  0.4280E+01  0.1732E+02
  5.436  0.4013E+01  0.1736E+02
  5.446  0.3786E+01  0.1740E+02
  5.456  0.3565E+01  0.1744E+02
  5.466  0.3336E+01  0.1747E+02
  5.476  0.3102E+01  0.1750E+02
